timestamp,TP9,AF7,AF8,TP10
1631106796174,0.2910216152667999,-0.0961636751890182,-0.2277053445577621,0.2959587275981903
1631106796267,0.2359073460102081,-0.1461400985717773,-0.2090201526880264,0.282151997089386
1631106796361,0.1787307411432266,-0.2000090479850769,-0.1838247925043106,0.2634673118591308
1631106796455,0.1311168223619461,-0.2519910931587219,-0.1583675295114517,0.2487741410732269
1631106796533,0.1090550050139427,-0.3024699687957763,-0.1408435553312301,0.2400248497724533
1631106796611,0.101491093635559,-0.3574918210506439,-0.1282102167606353,0.2273672074079513
1631106796783,0.1091716438531875,-0.4264174401760101,-0.1186346933245658,0.1975454986095428
1631106796876,0.1193266883492469,-0.5101332664489746,-0.109346903860569,0.1480112969875335
1631106796970,0.1227740496397018,-0.5801505446434021,-0.0998969301581382,0.0779389813542366
1631106797064,0.1226671338081359,-0.6217796206474304,-0.0929843261837959,0.002718687755987
1631106797142,0.1445575058460235,-0.6278848648071289,-0.0862399712204933,-0.0435703843832016
1631106797251,0.2236935496330261,-0.6047288179397583,-0.0756696164608001,0.017617342993617
1631106797376,0.2198441326618194,-0.5315285921096802,-0.0608572103083133,0.1989112347364425
1631106797501,0.2182650566101074,-0.4256156086921692,-0.0481390208005905,0.2068391889333725
1631106797579,0.2263773083686828,-0.3230141103267669,-0.0472522377967834,0.2126115709543228
1631106797658,0.2366621345281601,-0.2592279016971588,-0.0539949834346771,0.2188830524682998
1631106797767,0.2594295442104339,-0.2310822457075119,-0.0565699264407157,0.2352402806282043
1631106797861,0.2804560959339142,-0.2177400141954422,-0.0588274151086807,0.2592441439628601
1631106797986,0.3029404878616333,-0.2063434422016143,-0.0676702111959457,0.3606299459934234
1631106798079,0.3284699022769928,-0.193358913064003,-0.0760750249028205,0.4302158951759338
1631106798176,0.3681681156158447,-0.1765799522399902,-0.0847382172942161,0.486471951007843
1631106798285,0.4085243940353393,-0.1609342396259308,-0.0907729193568229,0.5445961952209473
1631106798363,0.4627314805984497,-0.1416007280349731,-0.0893809348344802,0.5912859439849854
1631106798457,0.4627314805984497,-0.1199578493833541,-0.0768431648612022,0.6193482875823975
1631106798597,0.4627314805984497,-0.0972106158733367,-0.0567398257553577,0.6362250447273254
1631106798691,0.4627314805984497,-0.0854097455739975,-0.0436235889792442,0.6468612551689148
1631106798800,0.4627314805984497,-0.0799966752529144,-0.0440994799137115,0.6331028342247009
1631106798894,1.047641396522522,-0.0870657339692115,-0.0558603815734386,0.5528553128242493
1631106798988,1.017964482307434,-0.106477215886116,-0.0710051879286766,0.5266801714897156
1631106799066,0.9733756184577942,-0.1330911964178085,-0.0822037905454635,0.4979314804077148
1631106799191,0.92999267578125,-0.1414878666400909,-0.092274509370327,0.4681032299995422
1631106799300,0.9007781744003296,-0.1244986355304718,-0.1120089367032051,0.439249187707901
1631106799394,0.8826062083244324,-0.0904742032289505,-0.1451095342636108,0.4127037823200226
1631106799488,0.8711772561073303,-0.0491515472531318,-0.1847937554121017,0.3513057231903076
1631106799566,0.861614465713501,-0.0097073120996356,-0.2299995869398117,0.2931759655475616
1631106799675,0.8496946692466736,0.0120075633749365,-0.2702180743217468,0.2389909029006958
1631106799816,0.832659900188446,0.0193173810839653,-0.3021270334720611,0.1771828532218933
1631106799910,0.8097970485687256,0.017055420204997,-0.327368825674057,0.1243412867188453
1631106800035,0.783664345741272,0.0129861515015363,-0.3466706275939941,0.0930862203240394
1631106800113,0.740531861782074,0.0069533889181911,-0.3482836186885834,0.0710688754916191
1631106800225,0.6766071319580078,0.0060588289052248,-0.3196172714233398,0.0411754138767719
1631106800287,0.5931840538978577,0.0066035580821335,-0.2803476452827453,0.0116282105445861
1631106800443,0.5050844550132751,0.0070697008632123,-0.2420640438795089,0.0063588968478143
1631106800538,0.4388276040554046,0.0007528135320171,-0.2032857686281204,0.0179243311285972
1631106800600,0.4025379121303558,-0.0111255394294857,-0.1662648469209671,0.0366713218390941
1631106800693,0.3829670250415802,-0.0277623478323221,-0.1414940059185028,0.065147764980793
1631106800803,0.3564505279064178,-0.0484150946140289,-0.1196228414773941,0.1202756240963935
1631106800881,0.3220516145229339,-0.0724842250347137,-0.0898668617010116,0.2137685716152191
1631106801021,0.2800354659557342,-0.0995913818478584,-0.0503150895237922,0.3249712586402893
1631106801115,0.2358690947294235,-0.126996174454689,-0.0068221050314605,0.4198664724826813
1631106801196,0.1742509305477142,-0.136362224817276,0.0272446256130933,0.4379796981811523
1631106801321,0.1259628385305404,-0.1244083568453788,0.0679557844996452,0.4525372385978699
1631106801399,0.1099052727222442,-0.0971478745341301,0.1481683403253555,0.465939462184906
1631106801509,0.1245996356010437,-0.0667476803064346,0.2712832391262054,0.4838860630989074
1631106801681,0.1551585346460342,-0.0300975851714611,0.4039294719696045,0.5097061991691589
1631106801743,0.1914968341588974,-0.0004280460125301,0.509347677230835,0.5425922870635986
1631106801868,0.2336999177932739,0.0136613911017775,0.5771375894546509,0.575876772403717
1631106801915,0.2746386229991913,0.0151205109432339,0.6100414395332336,0.6073142886161804
1631106802040,0.3184570968151092,0.0141772581264376,0.6203718781471252,0.6476499438285828
1631106802165,0.3607326745986938,0.0172414053231477,0.6215508580207825,0.7022379040718079
1631106802287,0.3978171944618225,0.0229348931461572,0.6191916465759277,0.771794319152832
1631106802367,0.3978171944618225,0.0261093731969594,0.6156924962997437,0.771794319152832
1631106802460,0.3978171944618225,0.0189511254429817,0.6097626090049744,0.771794319152832
1631106802569,0.3978171944618225,-0.0008016954525373,0.6013262867927551,0.771794319152832
1631106802640,0.3978171944618225,-0.0223773792386055,0.5913667678833008,0.771794319152832
1631106802781,0.3978171944618225,-0.0317717492580413,0.5828078389167786,0.63373863697052
1631106802859,0.3978171944618225,-0.0229097418487072,0.5710294246673584,0.8299691677093506
1631106802938,0.3978171944618225,-0.0053757918067276,0.5413612127304077,0.9880393147468568
1631106803030,1.2376596927642822,0.0075869625434279,0.4753858149051666,1.080835223197937
1631106803156,1.27857768535614,0.0006800143746659,0.3559766709804535,1.1137317419052124
1631106803237,1.2621830701828003,-0.019128955900669,0.1807045042514801,1.1062185764312744
1631106803346,1.2252658605575562,-0.0373814143240451,-0.0310500692576169,1.082377314567566
1631106803470,1.1911005973815918,-0.0407522283494472,-0.2075614631175995,1.0576828718185425
1631106803565,1.1586418151855469,-0.02428525313735,-0.2834700047969818,1.0323034524917605
1631106803659,1.1252295970916748,0.0079210996627807,-0.2636806964874267,1.0050103664398191
1631106803751,1.092413067817688,0.0432312302291393,-0.1716500669717788,0.978248655796051
1631106803840,1.0643925666809082,0.0709572732448577,-0.0680000260472297,0.9568190574645996
1631106803934,1.07147479057312,0.0886531695723533,0.0179020054638385,0.9623043537139891
1631106804091,1.0800076723098757,0.0965677425265312,0.0720945820212364,0.970308244228363
1631106804155,1.0641872882843018,0.0927514359354972,0.099122442305088,0.971608579158783
1631106804263,1.0479490756988523,0.0737305432558059,0.1083599254488945,0.9540330767631532
1631106804379,1.028504729270935,0.0417556948959827,0.1116686761379242,0.9008637070655824
1631106804450,0.9449789524078368,0.0022302502766251,0.11799918115139,0.8038736581802368
1631106804546,0.8257866501808167,-0.0366731919348239,0.1279937028884887,0.6719646453857422
1631106804687,0.7096695303916931,-0.0602079927921295,0.1399336159229278,0.5399927496910095
1631106804781,0.6464138627052307,-0.0622025206685066,0.1474280506372451,0.4491847455501556
1631106804871,0.6386041045188904,-0.0495643578469753,0.1448851823806762,0.3979785442352295
1631106804972,0.6472719311714172,-0.0428747832775116,0.1304336339235305,0.3587065637111664
1631106805090,0.6579713821411133,-0.0583933740854263,0.1058283299207687,0.3321866393089294
1631106805153,0.6648120284080505,-0.1055570021271705,0.0647160708904266,0.3197068870067596
1631106805296,0.6636404395103455,-0.1777285784482956,-0.0018168743699789,0.3100430071353912
1631106805374,0.6527786254882812,-0.2492137849330902,-0.0976970642805099,0.2799442410469055
1631106805468,0.6327438354492188,-0.290759265422821,-0.2112343162298202,0.2151865363121032
1631106805577,0.6041285991668701,-0.2898135483264923,-0.3085440397262573,0.1181500032544136
1631106805671,0.5725877285003662,-0.2366563379764557,-0.3617077171802521,0.0275024231523275
1631106805775,0.5432971715927124,-0.1462140083312988,-0.3686119318008423,-0.0131048299372196
1631106805900,0.5259041786193848,-0.0507836900651454,-0.3597855865955353,0.0078097935765981
1631106805993,0.5242045521736145,0.0386772044003009,-0.360964834690094,0.056531686335802
1631106806103,0.5338519215583801,0.1119791641831398,-0.3762806355953216,0.1066676080226898
1631106806197,0.539560079574585,0.1716899871826172,-0.4118841886520386,0.1466235071420669
1631106806274,0.5257060527801514,0.2158736139535904,-0.4513811469078064,0.1850646138191223
1631106806418,0.4854674935340881,0.2484976351261139,-0.4659026265144348,0.2361561357975006
1631106806496,0.4220688939094543,0.2695600688457489,-0.4518494606018066,0.2980336546897888
1631106806621,0.3543559312820434,0.2820077836513519,-0.4201747179031372,0.3519666194915771
1631106806731,0.3033566176891327,0.2886196374893188,-0.3888345658779144,0.3862635493278503
1631106806793,0.2794325947761535,0.2926156520843506,-0.3667580783367157,0.4012783467769623
1631106806887,0.2697688341140747,0.2962226271629333,-0.3534360527992248,0.4046657085418701
1631106806996,0.2591686248779297,0.2972242832183838,-0.3458513915538788,0.4035325646400451
1631106807121,0.2393764853477478,0.2937966883182525,-0.3432754278182983,0.401665449142456
1631106807230,0.218799278140068,0.2791056334972381,-0.3446522653102875,0.3979586660861969
1631106807317,0.2042912691831588,0.2500022649765014,-0.3514533638954162,0.3892970979213714
1631106807407,0.1957304775714874,0.2090049684047699,-0.3626846075057983,0.3722210228443146
1631106807485,0.1818438321352005,0.1547723114490509,-0.3787510991096496,0.3470553457736969
1631106807579,0.158588245511055,0.0911934524774551,-0.3970907032489776,0.3179414868354797
1631106807735,0.1368377953767776,0.0140614146366715,-0.4145400822162628,0.2956313490867615
1631106807829,0.1274268180131912,-0.0732399448752403,-0.4346123933792114,0.2781726419925689
1631106807923,0.1329407542943954,-0.1661366671323776,-0.4580598473548889,0.2459286898374557
1631106808001,0.1446526199579239,-0.2371049374341964,-0.4832045137882232,0.1828628927469253
1631106808126,0.1499965041875839,-0.261744737625122,-0.5097811222076416,0.1043473109602928
1631106808204,0.1532453000545501,-0.2263977080583572,-0.5258767604827881,0.050718817859888
1631106808345,0.1596189588308334,-0.1634792685508728,-0.5241519808769226,0.0481237359344959
1631106808425,0.1688596457242965,-0.1093615218997001,-0.506679117679596,0.0775154531002044
1631106808566,0.1738048791885376,-0.0709759443998336,-0.4870823323726654,0.1083000004291534
1631106808666,0.1744038462638855,-0.0434959158301353,-0.4745600521564483,0.1289352774620056
1631106808728,0.1670724004507064,-0.0240676719695329,-0.4725262224674225,0.1425020694732666
1631106808822,0.1544851660728454,-0.0140344025567173,-0.4740843176841736,0.1534506678581237
1631106808962,0.140558511018753,-0.0098317014053463,-0.4775586724281311,0.1660520434379577
1631106809059,0.1317649930715561,-0.0090127913281321,-0.4785831868648529,0.176465168595314
1631106809155,0.1272922307252884,-0.0017203720053657,-0.4752697646617889,0.1800542771816253
1631106809233,0.1321496814489364,0.0148293366655707,-0.4680327773094177,0.176789104938507
1631106809358,0.1457061618566513,0.0324965082108974,-0.4608527421951294,0.1633652448654174
1631106809436,0.1619268953800201,0.0416995547711849,-0.4605271518230438,0.1484630405902862
1631106809548,0.1747981160879135,0.0414458401501178,-0.4594634473323822,0.1346291452646255
1631106809647,0.1795894503593444,0.0306133795529603,-0.4415552318096161,0.1194387897849083
1631106809739,0.1764895170927047,0.0059381257742643,-0.4063630104064941,0.0990256294608116
1631106809837,0.1668327450752258,-0.0270075462758541,-0.3654462099075317,0.0696525573730468
1631106809954,0.1566971987485885,-0.0655897185206413,-0.335522711277008,0.0416841804981231
1631106810032,0.1568213552236557,-0.1054343879222869,-0.3241183161735534,0.0237690843641757
1631106810170,0.1706918030977249,-0.1380323767662048,-0.3281964361667633,0.0148388464003801
1631106810264,0.1938302367925644,-0.1558341085910797,-0.3337740302085876,0.0060549573972821
1631106810420,0.2177015244960785,-0.1540946066379547,-0.3255567550659179,-0.0021232266444712
1631106810467,0.2352324277162552,-0.1402921229600906,-0.2925108075141907,-0.0135503457859158
1631106810561,0.2468305081129074,-0.1110529452562332,-0.2455829977989196,-0.013814752921462
1631106810670,0.2596791088581085,-0.081940159201622,-0.1987585574388504,0.0031154993921518
1631106810795,0.2717079222202301,-0.0658625736832618,-0.1592364162206649,0.0217734612524509
1631106810876,0.2819555401802063,-0.0611533522605896,-0.1260515451431274,0.0297731291502714
1631106810970,0.2943634390830993,-0.061634249985218,-0.0976335480809211,0.0221411157399415
1631106811064,0.3091507852077484,-0.0604525245726108,-0.0764105170965194,0.0092988712713122
1631106811176,0.3284470736980438,-0.0452861078083515,-0.0623009949922561,0.0030752965249121
1631106811254,0.3546815514564514,-0.0182472821325063,-0.0522521883249282,0.0113272434100508
1631106811379,0.3756020367145538,0.0138463173061609,-0.0338164791464805,0.0286569576710462
1631106811473,0.3883047997951507,0.0426649823784828,-0.0036637354642152,0.0458382740616798
1631106811598,0.3916974365711212,0.0599290430545806,0.0330506563186645,0.0526815727353096
1631106811676,0.3889195621013641,0.0618070848286151,0.0647193416953086,0.0571837462484836
1631106811757,0.3788571655750274,0.0520104765892028,0.0861705169081687,0.0720005705952644
1631106811855,0.3709117472171783,0.036022562533617,0.0964341685175895,0.1027660369873046
1631106812024,0.3669417202472687,0.0202708300203084,0.0947281420230865,0.1388873308897018
1631106812087,0.363491803407669,-0.0027575909625738,0.0837392285466194,0.16254822909832
1631106812199,0.3533532619476318,-0.0364437885582447,0.065180093050003,0.1649201363325119
1631106812277,0.331069678068161,-0.0743214264512062,0.0436593778431415,0.1491274088621139
1631106812370,0.2963740527629852,-0.1033130288124084,0.0265211854130029,0.1350424885749817
1631106812464,0.2507094144821167,-0.1158967167139053,0.0199941638857126,0.1279424279928207
1631106812605,0.2031913250684738,-0.1263848394155502,0.0249711610376834,0.1283522695302963
1631106812712,0.1599160879850387,-0.1520179361104965,0.0335789658129215,0.1249760687351226
1631106812796,0.1135796681046485,-0.1958706676959991,0.0344777777791023,0.1136055365204811
1631106812932,0.0759696364402771,-0.2423419952392578,0.0130453575402498,0.1023995727300643
1631106812995,0.04612772539258,-0.2528272569179535,-0.0321113020181655,0.0987359508872032
1631106813102,0.0286654196679592,-0.2191350162029266,-0.0936588943004608,0.1128547266125679
1631106813211,0.0257234834134578,-0.1732322871685028,-0.1535630375146865,0.141673132777214
1631106813322,0.0424206778407096,-0.1344456821680069,-0.1981043070554733,0.1717241406440735
1631106813416,0.0570969656109809,-0.0995555743575096,-0.2219285815954208,0.1877144873142242
1631106813495,0.0552651211619377,-0.0696432366967201,-0.2207244336605072,0.1863088458776474
1631106813589,0.0386891216039657,-0.0463346615433692,-0.2022066861391067,0.1728446334600448
1631106813680,0.0180686824023723,-0.0277366749942302,-0.1757476478815078,0.1565929949283599
1631106813805,0.0104580326005816,-0.0141628682613372,-0.1518534421920776,0.146652415394783
1631106813916,0.026080859825015,-0.0043557919561862,-0.1453534364700317,0.1421566307544708
1631106814025,0.0698229223489761,0.0042524598538875,-0.1579382717609405,0.1422121971845626
1631106814102,0.0696075931191444,0.0225498937070369,-0.1762642562389373,0.1556328237056732
1631106814186,0.0737753808498382,0.0841250345110893,-0.1373878717422485,0.1724964380264282
1631106814280,0.0836414545774459,0.252441942691803,0.0411714725196361,0.1900395452976226
1631106814435,0.0988576561212539,0.5080732107162476,0.3123126327991485,0.2026930004358291
1631106814537,0.121354766190052,0.7503741979598999,0.5579871535301208,0.2066274136304855
1631106814627,0.1437873393297195,0.7714380621910095,0.7324561476707458,0.199919044971466
1631106814703,0.1513604968786239,0.7956764101982117,0.8346874713897705,0.1743551194667816
1631106814825,0.1420401781797409,0.8241642713546753,0.8877275586128235,0.1243612840771675
1631106814917,0.1211827397346496,0.8554461598396301,0.9170591831207277,0.044066347181797
1631106815041,0.1253123879432678,0.8888659477233887,0.9439467191696168,-0.0474180802702903
1631106815135,0.1734326630830764,0.926149606704712,0.970621645450592,-0.1237612515687942
1631106815228,0.1734326630830764,0.969783365726471,0.9994276762008668,-0.1237612515687942
1631106815307,0.1734326630830764,1.0223580598831177,1.0312601327896118,-0.1237612515687942
1631106815399,0.1734326630830764,1.0855106115341189,1.0670185089111328,-0.1237612515687942
1631106815491,0.1734326630830764,1.161399483680725,1.1068509817123413,-0.1237612515687942
1631106815649,0.1734326630830764,1.2528969049453735,1.150359272956848,-0.1237612515687942
1631106815742,0.1734326630830764,1.2528969049453735,1.1940220594406128,-0.1237612515687942
1631106815820,0.1734326630830764,1.2528969049453735,1.2281551361083984,-0.1237612515687942
1631106815945,0.1734326630830764,1.2528969049453735,1.2359273433685305,-0.1237612515687942
1631106816054,0.1734326630830764,1.2528969049453735,1.200988531112671,-0.1237612515687942
1631106816122,0.1734326630830764,1.2528969049453735,1.1171637773513794,-0.1237612515687942
1631106816247,0.1734326630830764,1.2528969049453735,1.1171637773513794,-0.1237612515687942
1631106816362,0.1734326630830764,1.2528969049453735,1.1171637773513794,-0.1237612515687942
1631106816477,0.1734326630830764,1.2528969049453735,1.1171637773513794,-0.1237612515687942
1631106816555,0.1734326630830764,1.2528969049453735,1.1171637773513794,-0.1237612515687942
1631106816633,0.1734326630830764,1.2528969049453735,1.1171637773513794,-0.1237612515687942
1631106816728,0.1734326630830764,1.2528969049453735,1.1171637773513794,-0.1237612515687942
1631106816859,0.1734326630830764,1.2528969049453735,1.1171637773513794,-0.1237612515687942
1631106816978,0.1734326630830764,1.2528969049453735,-0.2793132066726684,-0.1237612515687942
1631106817068,0.4469752907752991,0.0022459770552814,-0.2744787037372589,-0.1237612515687942
1631106817146,0.4104692935943603,0.1015306338667869,-0.2428347319364547,0.0595364905893802
1631106817240,0.3741534054279327,0.1368332803249359,-0.1971611827611923,0.0981010347604751
1631106817347,0.3588942587375641,0.1309007704257965,-0.159798577427864,0.1072405874729156
1631106817478,0.365024983882904,0.1084795072674751,-0.1293572783470153,0.095218151807785
1631106817572,0.3799995183944702,0.090824194252491,-0.1059183627367019,0.0769793987274169
1631106817665,0.3933885395526886,0.0759475603699684,-0.0920280516147613,0.0616872683167457
1631106817774,0.4026317298412323,0.0644007176160812,-0.0816531181335449,0.041509311646223
1631106817856,0.4055923819541931,0.0509697273373603,-0.0706729814410209,0.0242967531085014
1631106817950,0.4063481390476227,0.0337806195020675,-0.0657853782176971,0.0044161020778119
1631106818106,0.4132744967937469,0.0137144923210144,-0.068146526813507,0.0014996969839558
1631106818200,0.4297414124011993,-0.005626774393022,-0.0812394171953201,0.0305823870003223
1631106818278,0.4434942901134491,-0.0027194516733288,-0.0762704610824585,0.0816833525896072
1631106818401,0.4563522338867187,-0.0087733063846826,-0.0685504004359245,0.1440774649381637
1631106818463,0.4600927531719208,-0.0348604843020439,-0.0546654276549816,0.1810135841369629
1631106818567,0.4546811878681183,-0.0888997316360473,-0.0324657261371612,0.1850792169570922
1631106818723,0.4471705555915832,-0.1712415367364883,-0.0104640265926718,0.1645528376102447
1631106818854,0.4409549236297607,-0.2482344061136245,0.0021207828540354,0.1434146761894226
1631106818905,0.4516724944114685,-0.1985623836517334,0.0303391143679618,0.1429216861724853
1631106818983,0.4550168812274933,-0.2072027623653412,0.098993569612503,0.1513554751873016
1631106819077,0.452494740486145,-0.2182647883892059,0.2537789344787597,0.1659591048955917
1631106819186,0.4480811655521393,-0.231170505285263,0.2662248909473419,0.1829529255628585
1631106819314,0.4441417455673218,-0.2490171492099762,0.2805053293704986,0.207726314663887
1631106819423,0.4449397325515747,-0.2625077664852142,0.2954830229282379,0.2361853122711181
1631106819509,0.4485045373439789,-0.2634667158126831,0.3148424327373504,0.2733984887599945
1631106819591,0.4415158927440643,-0.2490165680646896,0.3408682942390442,0.3038561344146728
1631106819685,0.405286967754364,-0.2269269824028015,0.3742605149745941,0.3051710724830627
1631106819790,0.3228342235088348,-0.1983444392681121,0.4146893620491028,0.256831556558609
1631106819930,0.19793701171875,-0.1656096130609512,0.4608053565025329,0.1482791602611541
1631106820008,0.19793701171875,-0.1211071759462356,0.5099772810935974,0.1482791602611541
1631106820118,0.19793701171875,0.7883657813072205,0.7339250445365906,0.1482791602611541
1631106820196,0.19793701171875,0.9805357456207277,0.8195980191230774,0.1482791602611541
1631106820274,0.19793701171875,1.0439932346343994,0.8477797508239746,0.1482791602611541
1631106820402,0.19793701171875,1.0440908670425415,0.849745512008667,0.1482791602611541
1631106820542,-0.1721707284450531,0.9535606503486632,0.8209161758422852,0.7933593392372131
1631106820620,-0.1893265098333358,0.883566677570343,0.7144824266433716,0.7210542559623718
1631106820713,-0.1852159202098846,0.8299552202224731,0.6561833024024963,0.669417679309845
1631106820808,-0.1429891139268875,0.7886333465576172,0.610146701335907,0.6401073932647705
1631106820917,-0.0170933343470096,0.7534056901931763,0.5826539993286133,0.6610850691795349
1631106820988,0.2074253112077713,0.7196398973464966,0.5825451016426086,0.6610850691795349
1631106821148,0.4411003589630127,0.6865028738975525,0.6094640493392944,0.6610850691795349
1631106821257,0.6280488967895508,0.6560057997703552,0.651728093624115,0.6610850691795349
1631106821323,0.7547259330749512,0.6295876502990723,0.696474015712738,0.6610850691795349
1631106821417,0.8289928436279297,0.6070199608802795,0.7306174635887146,0.6610850691795349
1631106821511,0.8608652353286743,0.5869879722595215,0.7465474605560303,0.8461936712265015
1631106821605,0.8612885475158691,0.4008938372135162,0.6944141387939453,0.8925164341926575
1631106821761,0.8699693083763123,0.2405863553285598,0.6559281349182129,0.8554773926734924
1631106821855,0.8733695149421692,0.1698587387800216,0.638749361038208,0.8379334211349487
1631106821964,0.8752754330635071,0.1609988212585449,0.6309015154838562,0.8322380185127258
1631106822105,0.8761870861053467,0.1707148998975753,0.6284244060516357,0.8308398127555847
1631106822153,0.876922070980072,0.1656518429517746,0.6284891366958618,0.8334110975265503
1631106822231,0.8765202164649963,0.1495380252599716,0.6265898942947388,0.8322945833206177
1631106822371,0.8739922642707825,0.1234433874487876,0.6222658753395081,0.826499342918396
1631106822481,0.8653773665428162,0.0952685624361038,0.61106938123703,0.7966143488883972
1631106822590,0.8397860527038574,0.0849373862147331,0.585220992565155,0.7648916244506836
1631106822653,0.7839575409889221,0.1267261803150177,0.5362522006034851,0.7355643510818481
1631106822755,0.6864936947822571,0.2490298300981521,0.4568335115909576,0.7099548578262329
1631106822833,0.5419117212295532,0.4127802848815918,0.3369810283184051,0.6890126466751099
1631106823005,0.3527863025665283,0.5564000010490417,0.1736151129007339,0.6719101667404175
1631106823051,0.1436623334884643,0.6526942849159241,-0.0162700414657592,0.4872321784496307
1631106823176,-0.0202143713831901,0.7021989226341248,-0.1755720376968383,0.3449020683765411
1631106823254,-0.0989984050393104,0.7159347534179688,-0.2617373168468475,0.2889018952846527
1631106823348,-0.1479281038045883,0.7126583456993103,-0.3087235987186432,0.2643081843852997
1631106823426,-0.1824611276388168,0.706515371799469,-0.3260382413864136,0.2400753647089004
1631106823582,-0.1868291646242141,0.7029672861099243,-0.2972031831741333,0.2231915742158889
1631106823661,-0.1555995196104049,0.7014739513397217,-0.2457530200481414,0.213381215929985
1631106823801,-0.1127313375473022,0.6996270418167114,-0.1970585733652115,0.2056862860918045
1631106823895,-0.0757068246603012,0.6978935599327087,-0.1605380326509475,0.1949198246002197
1631106823974,-0.0526122637093067,0.6964607834815979,-0.1331558376550674,0.1850247532129287
1631106824036,-0.0356169007718563,0.6933097243309021,-0.1089320331811904,0.1809103488922119
1631106824208,-0.0170131530612707,0.6802313923835754,-0.085666038095951,0.182344302535057
1631106824286,0.0001198259487864,0.6390769481658936,-0.0674651786684989,0.1798402816057205
1631106824379,0.0188879631459712,0.5493497252464294,-0.0597368218004703,0.1633434891700744
1631106824489,0.0479816310107708,0.4001712203025818,-0.0593256428837776,0.135169580578804
1631106824551,0.1074016317725181,0.2036232203245163,-0.0631887093186378,0.104519322514534
1631106824660,0.1950829625129699,0.0045785261318087,-0.0673435032367706,0.0795475840568542
1631106824801,0.2814118564128876,-0.101917490363121,-0.0703832805156707,0.0682597681879997
1631106824910,0.3406014144420624,-0.0993801355361938,-0.0768582746386528,0.0656232833862304
1631106824973,0.3689991533756256,-0.0621491856873035,-0.092743769288063,0.0621695965528488
1631106825067,0.3726124763488769,-0.0315867997705936,-0.1296998411417007,0.0488389320671558
1631106825194,0.3619178831577301,-0.0095466310158371,-0.1848018020391464,0.0264194495975971
1631106825257,0.3489053547382355,0.0100335804745554,-0.2403020709753036,0.0042117410339415
1631106825392,0.3414707779884338,0.0259846411645412,-0.2861013114452362,-0.0147252101451158
1631106825486,0.3432812392711639,0.0380269065499305,-0.3172754943370819,-0.0284682139754295
1631106825595,0.3499257862567901,0.0427761189639568,-0.3411599695682525,-0.0392785482108593
1631106825720,0.3552511632442474,0.0341521389782428,-0.3629819750785827,-0.0527490675449371
1631106825783,0.3567886650562286,0.0129895154386758,-0.3752784729003906,-0.0573551580309867
1631106825908,0.3523536920547485,-0.0107773328199982,-0.3638598620891571,-0.0445284433662891
1631106826001,0.3343053460121155,-0.0282353237271308,-0.337687999010086,-0.0222558304667472
1631106826126,0.2908503115177154,-0.0339613817632198,-0.3109572231769562,-0.0024288941640406
1631106826208,0.2151729613542556,-0.0235245823860168,-0.2939977347850799,0.0013836999423801
1631106826333,0.12600077688694,-0.0124771036207675,-0.2918251454830169,-0.0145686715841293
1631106826395,0.0715706124901771,-0.0143853528425097,-0.2963344156742096,-0.0374370515346527
1631106826489,0.080308623611927,-0.0019114846363663,-0.3025683164596557,-0.0425690673291683
1631106826614,0.1209034025669097,0.0466593354940414,-0.3064604699611664,-0.0254818145185709
1631106826708,0.1553700268268585,0.1309705823659896,-0.3036377429962158,0.0122315268963575
1631106826817,0.1763444542884826,0.2267236411571502,-0.2900677621364593,0.0478855781257152
1631106826942,0.1896863430738449,0.3093224763870239,-0.2585313320159912,0.0752780586481094
1631106826989,0.1968187391757965,0.3614747226238251,-0.2126235216856002,0.0915614739060401
1631106827083,0.1963915675878524,0.385649710893631,-0.1587526351213455,0.1035683676600456
1631106827242,0.1860317140817642,0.3949557244777679,-0.1094288006424903,0.1207320541143417
1631106827336,0.1683654934167862,0.398512601852417,-0.0780274346470832,0.1353970319032669
1631106827445,0.1501095443964004,0.3992440104484558,-0.0727301016449928,0.1407611519098281
1631106827508,0.1395134627819061,0.3995116949081421,-0.0872299298644065,0.1363778710365295
1631106827617,0.1380462050437927,0.3991740345954895,-0.1027956902980804,0.1327575743198394
1631106827711,0.1468820124864578,0.3967979550361633,-0.1022478491067886,0.1513491123914718
1631106827836,0.1595629602670669,0.3916696608066559,-0.0877095907926559,0.1822225451469421
1631106827945,0.185497298836708,0.3839775323867798,-0.0695964843034744,0.2195478975772857
1631106828039,0.2249595075845718,0.3668511211872101,-0.0558053031563758,0.2552092969417572
1631106828196,0.276486337184906,0.334234356880188,-0.0504879392683506,0.2863264977931976
1631106828229,0.2707551419734955,0.2782657444477081,-0.0424484647810459,0.2895830571651459
1631106828401,0.273541510105133,0.2056303471326828,0.0420617498457431,0.2947949171066284
1631106828464,0.2783255279064178,0.0979627594351768,0.2339549958705902,0.3035337626934051
1631106828589,0.2832312285900116,-0.0146494582295417,0.2416549175977707,0.3166005909442901
1631106828698,0.2917375564575195,-0.0872322991490364,0.2418017536401748,0.3311481177806854
1631106828839,0.3134773969650268,-0.1033850535750389,0.2381858974695205,0.3413798809051513
1631106828917,0.351557046175003,-0.084747701883316,0.2397584170103073,0.3510565459728241
1631106828963,0.4028292298316955,-0.0507879927754402,0.2576243281364441,0.3698097467422485
1631106829121,0.4642152190208435,-0.0209353379905223,0.2925494611263275,0.4041061699390411
1631106829198,0.5352983474731445,-0.0082626948133111,0.3348049223423004,0.4478894174098968
1631106829292,0.6104966998100281,-0.020595371723175,0.3766939342021942,0.4779163300991058
1631106829402,0.6104966998100281,-0.0576291270554065,0.421100378036499,0.4779163300991058
1631106829478,0.6104966998100281,-0.0576291270554065,0.4862678647041321,0.4779163300991058
1631106829574,0.6104966998100281,-0.0576291270554065,0.5079296231269836,0.4779163300991058
1631106829694,0.6104966998100281,-0.0576291270554065,0.5190653204917908,0.4779163300991058
1631106829759,0.6104966998100281,-0.0576291270554065,0.5167366862297058,0.4779163300991058
1631106829927,0.1284966021776199,0.6651331782341003,0.4437221884727478,0.4779163300991058
1631106830005,0.1818782240152359,0.7676916122436523,0.0693640261888504,0.4849314093589782
1631106830052,0.2333074659109115,0.8431997895240784,0.030526453629136,0.5008449554443359
1631106830130,0.2834362089633941,0.8705184459686279,0.0001274320675292,0.507002055644989
1631106830383,0.3156914114952087,0.8606563210487366,-0.0263133514672517,0.5044704675674438
1631106830414,0.3324721753597259,0.8278340697288513,-0.0422550030052661,0.4999784529209137
1631106830492,0.3422849476337433,0.7887860536575317,-0.041877906769514,0.4972498416900635
1631106830554,0.3503266870975494,0.7546097636222839,-0.033226653933525,0.4956342577934265
1631106830679,0.3557917177677154,0.729616641998291,-0.0185313671827316,0.4922041296958923
1631106830758,0.3551235496997833,0.7118353843688965,-0.0149302873760461,0.4848185181617737
1631106830945,0.3477996289730072,0.6967222094535828,-0.0127920992672443,0.4737853407859802
1631106830992,0.3413907289505005,0.6778831481933594,-0.0924288481473922,0.4641801416873932
1631106831086,0.3555999100208282,0.6515348553657532,-0.1161213219165802,0.4637841582298279
1631106831181,0.3740997612476349,0.6310974359512329,-0.1217549219727516,0.4700351357460022
1631106831308,0.3892445862293243,0.6141767501831055,-0.1069036945700645,0.5046240091323853
1631106831386,0.3965264856815338,0.5815744400024414,-0.0846769139170646,0.5389744639396667
1631106831542,0.3947088420391083,0.5304298996925354,-0.0630595311522483,0.5559630393981934
1631106831667,0.3931969404220581,0.4842138290405273,-0.0437028408050537,0.5573250651359558
1631106831745,0.3962461054325104,0.4709930121898651,-0.0222730841487646,0.5471596717834473
1631106831839,0.4113928079605102,0.4864840507507324,0.0044031008146703,0.5336429476737976
1631106831901,0.4302777051925659,0.5105239152908325,0.02877664193511,0.5200411081314087
1631106831979,0.450468361377716,0.5271043181419373,0.0389894880354404,0.511716365814209
1631106832167,0.4685931205749511,0.531705379486084,0.0363300517201423,0.50933438539505
1631106832229,0.4805276691913605,0.5233721137046814,0.0102422013878822,0.5122918486595154
1631106832354,0.4827962815761566,0.5038015842437744,0.0102422013878822,0.5194816589355469
1631106832385,0.4821238219738006,0.4809761047363281,0.0102422013878822,0.5372368097305298
1631106832526,0.4783545732498169,0.466545969247818,0.0102422013878822,0.5603988170623779
1631106832651,0.4770465195178985,0.4623475670814514,0.0102422013878822,0.5896083116531372
1631106832776,0.4867732226848602,0.462912917137146,0.0102422013878822,0.6220394372940063
1631106832807,0.5138250589370728,0.4633491337299347,0.4792249500751495,0.6496816277503967
1631106832948,0.5575321316719055,0.4565082192420959,0.4499304294586181,0.6752814650535583
1631106833057,0.6011027693748474,0.4247398376464844,0.4259317219257355,0.697331428527832
1631106833151,0.6263414621353149,0.3542667925357818,0.4069017171859741,0.7140410542488098
1631106833182,0.6268517971038818,0.2419770956039428,0.3909132480621338,0.7239128947257996
1631106833310,0.6075085997581482,0.1070030331611633,0.3750196397304535,0.7287850379943848
1631106833420,0.5828320980072021,-0.011615321971476,0.3664619922637939,0.7310048937797546
1631106833529,0.5610770583152771,-0.0870502069592475,0.3636638522148132,0.7278607487678528
1631106833607,0.5438075661659241,-0.1272504180669784,0.3605790138244629,0.7222527265548706
1631106833701,0.5319414138793945,-0.1456826478242874,0.3493580222129822,0.7130212783813477
1631106833779,0.5270848274230957,-0.1452496498823166,0.3321214318275451,0.7044393420219421
1631106833920,0.5235634446144104,-0.1352975964546203,0.3165870308876037,0.692344605922699
1631106834029,0.5184839963912964,-0.1234453245997428,0.2797768115997314,0.6752793192863464
1631106834123,0.5035944581031799,-0.1125394478440284,0.2575889825820923,0.6434810161590576
1631106834216,0.4735232889652252,-0.1059184446930885,0.2453232407569885,0.5885752439498901
1631106834326,0.4229723215103149,-0.1076691597700119,0.2411080151796341,0.5116599798202515
1631106834404,0.3465132117271423,-0.1241399347782135,0.2350641340017318,0.4150769114494324
1631106834545,0.2554316222667694,-0.1542377918958664,0.2257686853408813,0.3110149502754211
1631106834638,0.1738154292106628,-0.1494262814521789,0.2134234458208084,0.2335945516824722
1631106834748,0.1260434091091156,-0.0578177943825721,0.2171303629875183,0.1870897263288498
1631106834857,0.1170996129512786,0.1651819497346878,0.2769755125045776,0.1673513501882553
1631106834935,0.1214278638362884,0.4726194739341736,0.42532679438591,0.1594069451093673
1631106835029,0.1068404838442802,0.4976274669170379,0.4311335980892181,0.1589592397212982
1631106835153,0.06539236754179,0.5250247716903687,0.4383100867271423,0.1491898447275161
1631106835247,0.0035914529580622,0.5554312467575073,0.4539884328842163,0.1446719914674759
1631106835343,-0.0545872822403907,0.5894517302513123,0.4786317348480224,0.1273917853832245
1631106835436,-0.0864951387047767,0.6259070038795471,0.5064899325370789,0.0877868235111236
1631106835530,-0.0804825648665428,0.6651728749275208,0.5338647365570068,0.0247982498258352
1631106835608,-0.0388279221951961,0.7226916551589966,0.5592658519744873,-0.0405630953609943
1631106835749,-0.0388279221951961,0.7486579418182373,0.5865179896354675,-0.0405630953609943
1631106835843,-0.0388279221951961,0.7612996697425842,0.619808554649353,-0.0405630953609943
1631106835952,-0.0388279221951961,0.7713019847869873,0.6689618825912476,-0.0405630953609943
1631106836046,-0.0388279221951961,0.7829399704933167,0.7397246360778809,-0.0405630953609943
1631106836155,-0.0388279221951961,0.7915856242179871,0.7397246360778809,-0.0405630953609943
1631106836249,-0.0388279221951961,0.7917259335517883,0.7397246360778809,-0.0405630953609943
1631106836377,-0.0388279221951961,0.758208692073822,0.7397246360778809,0.6864225268363953
1631106836486,0.8804794549942017,0.6013887524604797,0.7397246360778809,0.6407027244567871
1631106836548,0.9532657861709596,0.6536450982093811,0.7397246360778809,0.6048520803451538
1631106836642,0.9902626872062684,0.6817436218261719,-0.1837824583053589,0.5845003128051758
1631106836751,1.002461314201355,0.6911031603813171,-0.1806831210851669,0.5709824562072754
1631106836830,0.9865833520889282,0.6862908005714417,-0.1657513529062271,0.5534968376159668
1631106836986,0.9585629105567932,0.6819354891777039,-0.1415991187095642,0.5301975607872009
1631106837064,0.936757266521454,0.6961369514465332,-0.0875694155693054,0.5048079490661621
1631106837173,0.923022449016571,0.7185414433479309,-0.0248920544981956,0.4802556037902832
1631106837251,0.9190405011177064,0.7621048092842102,0.0520272180438041,0.4570936560630798
1631106837363,0.9242499470710754,0.8073538541793823,0.1530134230852127,0.4370317459106445
1631106837473,0.9396368265151978,0.8492323756217957,0.2719444036483764,0.4370317459106445
1631106837598,0.960885763168335,0.8876683115959167,0.3867586851119995,0.3857801854610443
1631106837676,0.9983192682266236,0.918377697467804,0.4737008810043335,0.3317500948905945
1631106837785,1.0360348224639893,0.9360814094543456,0.5213438868522644,0.5072751641273499
1631106837879,1.0624706745147705,0.934898853302002,0.5544936060905457,0.6521053910255432
1631106837957,1.0731489658355713,0.9213996529579164,0.5731151103973389,0.7549831867218018
1631106838050,1.0762908458709717,0.9004168510437012,0.6095535755157471,0.8545907735824585
1631106838200,1.117034912109375,0.8862056136131287,0.6813133358955383,0.8783159852027893
1631106838298,1.2122348546981812,0.8958794474601746,0.7916725873947144,0.9042877554893494
1631106838376,1.2292760610580444,0.9368036389350892,0.907353937625885,0.9368470907211304
1631106838485,1.2536262273788452,0.9897688627243042,1.001254677772522,0.9783587455749512
1631106838563,1.2796592712402344,1.0305519104003906,1.0269044637680054,1.0290286540985107
1631106838657,1.3065059185028076,1.0515811443328855,1.053337812423706,1.089612603187561
1631106838813,1.333110809326172,1.049397349357605,1.0798254013061523,1.1629747152328491
1631106838923,1.3590589761734009,1.0474151372909546,1.1042397022247314,1.2535470724105835
1631106839001,1.3826731443405151,1.0455490350723269,1.123985767364502,1.2535470724105835
1631106839094,1.4049400091171265,1.0427240133285522,1.1385219097137451,1.2535470724105835
1631106839204,1.427489161491394,1.0423812866210938,1.1531128883361816,1.2535470724105835
1631106839297,1.453327178955078,1.0523303747177124,1.1788240671157837,1.2535470724105835
1631106839438,1.4899392127990725,1.0814311504364014,1.226988434791565,1.2535470724105835
1631106839516,1.4899392127990725,1.1231781244277954,1.29280686378479,1.2535470724105835
1631106839641,1.4899392127990725,1.174926519393921,1.364019751548767,1.2535470724105835
1631106839719,1.4899392127990725,1.2344268560409546,1.364019751548767,1.2535470724105835
1631106839813,1.4899392127990725,1.285109281539917,1.364019751548767,1.2535470724105835
1631106839891,1.4899392127990725,1.285109281539917,1.364019751548767,1.2535470724105835
1631106840031,1.4899392127990725,1.285109281539917,1.364019751548767,1.2535470724105835
1631106840141,1.4899392127990725,1.285109281539917,1.364019751548767,1.2535470724105835
1631106840203,1.4899392127990725,1.285109281539917,1.364019751548767,1.2535470724105835
1631106840300,1.4899392127990725,1.285109281539917,1.364019751548767,1.2535470724105835
1631106840409,1.4899392127990725,1.285109281539917,1.364019751548767,1.2535470724105835
1631106840503,1.4899392127990725,1.285109281539917,1.364019751548767,1.2535470724105835
1631106840628,1.4899392127990725,1.285109281539917,1.364019751548767,1.2535470724105835
1631106840737,1.4899392127990725,1.285109281539917,1.364019751548767,1.2535470724105835
1631106840831,1.4899392127990725,1.285109281539917,1.364019751548767,1.2535470724105835
1631106840940,1.4899392127990725,1.1326035261154177,1.364019751548767,1.2535470724105835
1631106841018,1.4899392127990725,1.0608357191085815,1.364019751548767,1.2535470724105835
1631106841097,1.4899392127990725,1.032185435295105,0.586289644241333,1.2535470724105835
1631106841237,1.4899392127990725,1.0518492460250854,0.6257713437080383,1.2535470724105835
1631106841381,1.4899392127990725,1.114615559577942,0.7050237059593201,1.2535470724105835
1631106841412,1.4899392127990725,1.186765193939209,0.7864705324172974,1.2535470724105835
1631106841521,1.4899392127990725,1.2374619245529177,0.8398292064666748,1.2535470724105835
1631106841631,1.4899392127990725,1.2427431344985962,0.8576013445854187,1.2535470724105835
1631106841709,1.4899392127990725,1.2147406339645386,0.8524930477142334,1.2535470724105835
1631106841849,1.4899392127990725,1.2147406339645386,0.8376015424728394,1.2535470724105835
1631106841959,1.4899392127990725,1.2147406339645386,0.8168925642967224,1.2535470724105835
1631106842037,1.4899392127990725,1.2147406339645386,0.7934165000915527,1.2535470724105835
1631106842146,1.4899392127990725,1.176036357879639,0.7666882276535034,1.2535470724105835
1631106842240,1.4899392127990725,1.1396602392196655,0.7410573959350586,1.2535470724105835
1631106842336,1.4899392127990725,1.141354203224182,0.731240451335907,1.2535470724105835
1631106842477,1.4899392127990725,1.147596836090088,0.7289385795593262,1.2535470724105835
1631106842571,1.0987248420715332,1.1553961038589478,0.7345115542411804,1.2535470724105835
1631106842664,1.0987248420715332,1.154586672782898,0.7373175024986267,1.2535470724105835
1631106842742,1.1783286333084106,1.1318535804748535,0.7222484946250916,1.2535470724105835
1631106842836,1.1963238716125488,1.0762555599212646,0.6820782423019409,0.9679318070411682
1631106842914,1.1836879253387451,0.9875355362892152,0.6224780678749084,1.0112926959991455
1631106843149,1.152637958526611,0.8885101675987244,0.5661459565162659,1.0273972749710083
1631106843180,1.1139726638793943,0.8198308348655701,0.5405920743942261,1.0325398445129397
1631106843291,1.0793169736862185,0.7930570244789124,0.539634108543396,1.0283005237579346
1631106843369,1.048146367073059,0.8009957671165466,0.5369864702224731,1.0126805305480957
1631106843463,1.017866611480713,0.7875571846961975,0.5269214510917664,0.9863472580909728
1631106843541,0.9878674149513244,0.7645323276519775,0.5160158276557922,0.958321750164032
1631106843682,0.960179090499878,0.7624334096908569,0.5106514692306519,0.9311434030532836
1631106843807,0.9596620202064514,0.7615121603012085,0.5066727995872498,0.9406165480613708
1631106843901,0.9574741125106812,0.7538560032844543,0.4951135516166687,0.9684168696403505
1631106843979,0.96261864900589,0.7353174090385437,0.4682967364788055,0.989779770374298
1631106844072,0.978438436985016,0.7057822346687317,0.4289358258247375,1.0318498611450195
1631106844182,1.0463529825210571,0.6726799011230469,0.389733612537384,1.078676462173462
1631106844294,1.065377950668335,0.646015465259552,0.3643288016319275,1.104550004005432
1631106844404,1.0833935737609863,0.6145259737968445,0.3452799022197723,1.1215399503707886
1631106844482,1.1019238233566284,0.5623137354850769,0.3150469660758972,1.1345276832580566
1631106844575,1.1313081979751587,0.4739342331886291,0.260279893875122,1.1489489078521729
1631106844685,1.166701316833496,0.3401514887809753,0.1751075983047485,1.1614283323287964
1631106844779,1.206127047538757,0.165602445602417,0.0734610185027122,1.1772972345352173
1631106844919,1.2396435737609863,0.0141763295978307,-0.0005861273966729,1.191096544265747
1631106844997,1.2639243602752686,-0.0265001356601715,-0.0198177006095647,1.213083267211914
1631106845090,1.283713936805725,0.0361858084797859,-0.010456315241754,1.2394767999649048
1631106845190,1.3116905689239502,0.1262056976556778,0.0167637020349502,1.2694556713104248
1631106845303,1.3386857509613037,0.1981192976236343,0.0537234507501125,1.2666791677474976
1631106845381,1.3368682861328125,0.2390644401311874,0.0847946107387542,1.2531110048294067
1631106845506,1.3196438550949097,0.2625024914741516,0.0978228449821472,1.2264186143875122
1631106845616,1.2822617292404177,0.2811561524868011,0.0975461602210998,1.179041028022766
1631106845678,1.2280776500701904,0.2984764873981476,0.0983042120933532,1.1117918491363523
1631106845803,1.1666463613510132,0.309626430273056,0.1056404784321785,1.0394755601882937
1631106845881,1.1115713119506836,0.3157535195350647,0.1137728318572044,0.9710685014724731
1631106845975,1.065708875656128,0.3174782991409302,0.1151324138045311,0.9083206057548524
1631106846147,1.015336036682129,0.3218063414096832,0.0997661799192428,0.8353762626647949
1631106846225,0.9592225551605223,0.3384349048137665,0.0875076800584793,0.7504661679267883
1631106846321,0.896568238735199,0.3875170946121216,0.1169613152742385,0.6292681097984314
1631106846425,0.8645625710487366,0.4718143343925476,0.2089344263076782,0.4929837882518768
1631106846504,0.8725511431694031,0.5631920099258423,0.333696037530899,0.4671288728713989
1631106846582,0.8894906640052795,0.629868745803833,0.4402235746383667,0.4531160891056061
1631106846754,0.917714297771454,0.6604995131492615,0.5081638097763062,0.4529775977134704
1631106846846,0.932650089263916,0.6658938527107239,0.5388386249542236,0.4591557681560516
1631106846925,0.9473753571510316,0.6609275937080383,0.5469641089439392,0.4782639443874359
1631106847018,0.9613355994224548,0.6541168093681335,0.5480507612228394,0.4873405694961548
1631106847099,0.9695771932601928,0.644036591053009,0.5442808270454407,0.4860928058624267
1631106847238,0.967110514640808,0.6328806281089783,0.538790762424469,0.4737927317619324
1631106847347,0.9592357873916626,0.623431921005249,0.5316797494888306,0.4535890221595764
1631106847456,0.9500608444213868,0.6174622178077698,0.5249025225639343,0.4304030537605285
1631106847550,0.9461491107940674,0.615867555141449,0.5220983028411865,0.4144507050514221
1631106847613,0.952623724937439,0.6140772104263306,0.5268324017524719,0.4294528067111969
1631106847704,0.9661945700645448,0.6053310632705688,0.5317298769950867,0.4823929667472839
1631106847812,0.9705696105957032,0.5768309831619263,0.522803783416748,0.5591492652893066
1631106847986,0.9471713304519652,0.5085031986236572,0.4831259548664093,0.6259346008300781
1631106848033,0.8973761796951294,0.387369692325592,0.3976724445819855,0.671135663986206
1631106848157,0.8346829414367676,0.2160609066486358,0.269690066576004,0.696361780166626
1631106848236,0.7732670903205872,0.0303647182881832,0.1209217607975006,0.7056963443756104
1631106848330,0.7157973051071167,-0.1160367280244827,-0.0086024282500147,0.6996814012527466
1631106848416,0.658306896686554,-0.1657824367284774,-0.0875783488154411,0.6832055449485779
1631106848564,0.6116657257080078,-0.107019118964672,-0.0984135046601295,0.665993869304657
1631106848672,0.5964497327804565,0.0718643441796302,0.0064444183371961,0.6522065997123718
1631106848748,0.6423996686935425,0.2997781634330749,0.1867303103208542,0.6419389247894287
1631106848843,0.7296760082244873,0.4980374872684479,0.3635974824428558,0.6326791644096375
1631106848919,0.8171068429946899,0.6358780264854431,0.490297257900238,0.6197623014450073
1631106849014,0.8727889060974121,0.7153974175453186,0.5619032382965088,0.599412739276886
1631106849155,0.8914867043495178,0.7520546317100525,0.5897621512413025,0.5641859173774719
1631106849265,0.8802158236503601,0.7639386653900146,0.5912587642669678,0.5070444941520691
1631106849343,0.8537653088569641,0.7655516862869263,0.5819302797317505,0.4205278754234314
1631106849468,0.827817440032959,0.7617858052253723,0.5698213577270508,0.3172173500061035
1631106849560,0.8113348484039307,0.757489025592804,0.5622599720954895,0.2139511704444885
1631106849637,0.8045480251312256,0.7538914084434509,0.5604634284973145,0.1164169162511825
1631106849782,0.8005648851394653,0.7521805763244629,0.5633476376533508,0.023082822561264
1631106849888,0.7975975275039673,0.7521121501922607,0.5705031156539917,-0.046493362635374
1631106849981,0.7934474945068359,0.7505502700805664,0.5789283514022827,-0.0800105184316635
1631106850058,0.7832308411598206,0.7418199777603149,0.580420732498169,-0.0880109965801239
1631106850152,0.7597424387931824,0.7125924229621887,0.5594432950019836,-0.0923933014273643
1631106850246,0.7064054608345032,0.6416206359863281,0.4981053173542022,-0.0897460952401161
1631106850388,0.6077070236206055,0.5133586525917053,0.3887382745742798,-0.0755501389503479
1631106850481,0.4543441832065582,0.3300903737545013,0.2449159920215606,-0.0423789173364639
1631106850557,0.2651571631431579,0.1318693906068802,0.1107284799218177,-0.0057920161634683
1631106850667,0.087242342531681,-0.0046773422509431,0.0332487449049949,0.0283680688589811
1631106850740,-0.019677884876728,-0.0466157458722591,0.011423603631556,0.0566088110208511
1631106850849,-0.0530190467834472,-0.0465836450457572,0.0109964841976761,0.071651391685009
1631106850991,-0.0439256504178047,-0.0265883710235357,0.0201765429228544,0.0814071148633956
1631106851113,-0.024551747366786,-0.0024719659704715,0.0341044440865516,0.088747851550579
1631106851188,0.0091928420588374,0.0617582388222217,0.0658434703946113,0.1053260415792465
1631106851251,0.1003979071974754,0.1817595958709716,0.1155793741345405,0.1470571905374527
1631106851373,0.2376156151294708,0.3323399126529693,0.1778504699468612,0.2002932429313659
1631106851467,0.3854503929615021,0.4691263735294342,0.2432482093572616,0.2415059506893158
1631106851620,0.5085432529449463,0.5640419721603394,0.297288715839386,0.2615828514099121
1631106851701,0.6011473536491394,0.6137791872024536,0.3335952758789062,0.2702072560787201
1631106851806,0.6637521982192993,0.6342279314994812,0.3498372733592987,0.2785727679729461
1631106851883,0.69912189245224,0.6378708481788635,0.3450190424919128,0.2851585745811462
1631106851975,0.7195944786071777,0.63704514503479,0.328954815864563,0.2815814316272735
1631106852069,0.7552863359451294,0.6573376655578613,0.3301883935928345,0.2646836340427398
1631106852211,0.8169503211975098,0.7171937823295593,0.3744635283946991,0.2328028380870819
1631106852306,0.8902022838592529,0.8043414950370789,0.4537389278411865,0.1911032199859619
1631106852398,0.9585763812065125,0.888692319393158,0.5349900722503662,0.1537467837333679
1631106852508,1.0120347738265991,0.9526095986366272,0.5925912261009216,0.1279434412717819
1631106852600,1.0470808744430542,0.9905921816825868,0.620936930179596,0.1160489842295646
1631106852663,1.0669163465499878,1.0060125589370728,0.6236914396286011,0.1026665568351745
1631106852836,1.0704995393753052,1.0023751258850098,0.6095522046089172,0.0662966817617416
1631106852928,1.0558404922485352,0.980546534061432,0.5840963125228882,0.0103306025266647
1631106853006,1.027591347694397,0.945743441581726,0.55031418800354,-0.0337531007826328
1631106853084,0.9927140474319458,0.9091454148292542,0.5156991481781006,-0.038994513452053
1631106853206,0.9565709829330444,0.8822128772735596,0.4876534342765808,-0.0165912918746471
1631106853283,0.9254595041275024,0.8671277165412903,0.4701704978942871,0.0028117529582232
1631106853425,0.9044709801673888,0.8616340756416321,0.4636479020118713,0.0137256998568773
1631106853535,0.8911634087562561,0.858318567276001,0.4616957306861877,0.0279993843287229
1631106853628,0.8689873218536377,0.8412410616874695,0.4455054402351379,0.0623080767691135
1631106853720,0.8233374953269958,0.7933079600334167,0.3979376852512359,0.1248354613780975
1631106853829,0.7491095066070557,0.7020497918128967,0.3026486337184906,0.193637877702713
1631106853891,0.643337607383728,0.5653634071350098,0.1535594016313552,0.2492388635873794
1631106854032,0.5141826868057251,0.3927869498729706,-0.0288257300853729,0.2862920761108398
1631106854111,0.3940652906894684,0.2213736921548843,-0.1933195888996124,0.3165152072906494
1631106854207,0.2854141294956207,0.0894945859909057,-0.2804142236709595,0.3626457750797272
1631106854314,0.2086521089076995,0.0105780242010951,-0.2979411780834198,0.3791633546352386
1631106854408,0.1964938044548034,-0.0188166331499815,-0.2925614416599273,0.3960256576538086
1631106854545,0.2173128128051757,-0.0221118554472923,-0.2870838642120361,0.412489116191864
1631106854654,0.2484669834375381,-0.0148065406829118,-0.2780115902423858,0.4277623891830444
1631106854794,0.2914295494556427,-0.0020776367746293,-0.2673777043819427,0.4443410038948059
1631106854853,0.3432925343513489,0.0094966674223542,-0.2520525455474853,0.4650157392024994
1631106854947,0.4041933417320251,0.0123498104512691,-0.2328622788190841,0.5771680474281311
1631106855027,0.4669357240200043,0.0060330284759402,-0.2101148962974548,0.6498394012451172
1631106855135,0.5085187554359436,-0.0135231474414467,-0.1871790438890457,0.6866075396537781
1631106855328,0.5085187554359436,-0.0428277403116226,-0.174449160695076,0.6889832019805908
1631106855375,0.5085187554359436,-0.075544349849224,-0.1647127717733383,0.674731433391571
1631106855445,0.5085187554359436,-0.096584565937519,-0.1583207994699478,0.6607394218444824
1631106855539,0.5085187554359436,-0.1019103154540062,-0.1547656208276748,0.6552754044532776
1631106855633,0.5085187554359436,-0.1012623310089111,-0.151678204536438,0.6446449160575867
1631106855726,-0.26594278216362,-0.1085473299026489,-0.1476629823446273,0.6159709692001343
1631106855898,-0.3148332238197326,-0.1295792311429977,-0.1478302776813507,0.5892391800880432
1631106855979,-0.3491153120994568,-0.1596440374851226,-0.1548946648836136,0.5675061941146851
1631106856041,-0.3737159967422485,-0.1928306818008422,-0.156757652759552,0.550207257270813
1631106856168,-0.3737159967422485,-0.2239051163196563,-0.1449407190084457,0.550207257270813
1631106856242,-0.3737159967422485,-0.2161468714475631,-0.0777774080634117,0.550207257270813
1631106856335,-0.3737159967422485,-0.1270754039287567,0.025013942271471,0.550207257270813
1631106856486,-0.3737159967422485,0.1048433035612106,0.2128578573465347,0.4823011755943298
1631106856580,-0.3737159967422485,0.409169465303421,0.4539326131343841,0.4069510102272033
1631106856674,-0.3737159967422485,0.6727635264396667,0.6706097722053528,0.3422117531299591
1631106856751,-0.3737159967422485,0.8549214601516724,0.8253028392791748,0.3122166395187378
1631106856845,-0.3737159967422485,0.8834386467933655,0.9180102944374084,0.3045578896999359
1631106856954,-0.4686507284641266,0.9131579995155334,0.9603074193000792,0.2973049581050873
1631106857085,-0.5494256019592285,0.9442588686943054,0.976373255252838,0.2741287648677826
1631106857155,-0.5651247501373291,0.9567289352416992,0.984162449836731,0.2666957676410675
1631106857264,-0.5651247501373291,0.9735608100891112,0.9924978613853456,0.2666957676410675
1631106857358,-0.5651247501373291,0.9957705736160278,1.000905156135559,0.2666957676410675
1631106857441,-0.5651247501373291,1.0202220678329468,1.0084065198898315,0.2666957676410675
1631106857550,-0.5651247501373291,1.0384403467178345,1.0124369859695437,0.2666957676410675
1631106857687,-0.5651247501373291,1.047575831413269,1.0123580694198608,0.2666957676410675
1631106857812,-0.5651247501373291,1.0479995012283323,1.0066053867340088,0.2666957676410675
1631106857891,-0.5651247501373291,1.0405360460281372,0.996040105819702,0.6447248458862305
1631106858000,-0.5651247501373291,1.0130600929260254,0.9688248038291932,0.5815984010696411
1631106858081,-0.5651247501373291,0.941563367843628,0.9066714644432068,0.5190021395683289
1631106858159,-0.5651247501373291,0.7940366268157959,0.7953662872314453,0.4609578847885132
1631106858304,-0.5651247501373291,0.5394629836082458,0.6400326490402222,0.4084667861461639
1631106858414,-0.5651247501373291,0.5579694509506226,0.476743996143341,0.4084667861461639
1631106858509,-0.5651247501373291,0.5746895670890808,0.3796415627002716,0.4084667861461639
1631106858587,-0.5651247501373291,0.5746895670890808,0.3599120080471039,0.4084667861461639
1631106858681,-0.5651247501373291,0.5713578462600708,0.4101081192493438,0.4084667861461639
1631106858790,-0.5651247501373291,0.5560286045074463,0.403479665517807,0.4084667861461639
1631106858915,-0.5651247501373291,0.5211203098297119,0.3932781219482422,0.4084667861461639
1631106858993,-0.5651247501373291,0.4642720222473144,0.3827506601810455,0.4084667861461639
1631106859088,-0.5651247501373291,0.4124304056167602,0.3849748969078064,0.2533432245254516
1631106859225,-0.5651247501373291,0.3979188501834869,0.4060938358306885,0.1003451645374298
1631106859305,-0.5651247501373291,0.4279789626598358,0.4416427910327911,-0.032970268279314
1631106859444,-0.5651247501373291,0.4835176169872284,0.4854915738105774,-0.1488841474056244
1631106859556,-0.5651247501373291,0.5557085275650024,0.5384501218795776,-0.1488841474056244
1631106859622,-0.5651247501373291,0.6298210620880127,0.6134624481201172,-0.1488841474056244
1631106859716,-0.5651247501373291,0.6298210620880127,0.6397024393081665,-0.1488841474056244
1631106859825,-0.5651247501373291,0.6298210620880127,0.625918447971344,-0.1488841474056244
1631106859903,-0.5651247501373291,0.6298210620880127,0.5747523307800293,-0.1488841474056244
1631106860012,-0.5651247501373291,0.6298210620880127,0.5050964951515198,-0.1488841474056244
1631106860156,0.0526205115020275,0.0249199923127889,0.4308966994285583,-0.0072590741328895
1631106860219,0.0636976659297943,-0.0019005523063242,0.2482506036758422,-0.0534611456096172
1631106860328,0.0938785672187805,-0.0082753198221325,0.2095859050750732,-0.0344596169888973
1631106860422,0.1297538876533508,-0.0117674525827169,0.1754759848117828,0.0199945326894521
1631106860517,0.164522185921669,-0.0237416271120309,0.1447712182998657,0.076727770268917
1631106860593,0.1842136979103088,-0.046186190098524,0.1197777986526489,0.1192539036273956
1631106860748,0.1935633867979049,-0.0756129920482635,0.0987330451607704,0.1435542702674865
1631106860856,0.2034203261137008,-0.1027121245861053,0.0786652117967605,0.1504502892494201
1631106860917,0.212508350610733,-0.1218611970543861,0.05886160582304,0.1428903341293335
1631106861042,0.215286448597908,-0.132237508893013,0.0399316512048244,0.1246448755264282
1631106861124,0.2089105397462844,-0.1360464096069336,-0.0986809432506561,0.1031118780374527
1631106861223,0.1992456763982772,-0.1429197937250137,-0.1926268190145492,0.0817796438932418
1631106861362,0.183522492647171,-0.2219683527946472,-0.2403055727481842,0.0164464563131332
1631106861453,0.1958573758602142,-0.2557697594165802,-0.2455480247735977,0.0177031084895133
1631106861550,0.2152648568153381,-0.2610144913196563,-0.2365254461765289,0.0383489876985549
1631106861638,0.2285855263471603,-0.2564670741558075,-0.2362277060747146,0.0681772157549858
1631106861726,0.2338175624608993,-0.2561067044734955,-0.2481605261564254,0.1016122847795486
1631106861823,0.2281974256038665,-0.2681607007980346,-0.2660538852214813,0.129516452550888
1631106861985,0.2120102792978286,-0.289553701877594,-0.2847955226898193,0.1430579125881195
1631106862064,0.1871498972177505,-0.3093770146369934,-0.2962284386157989,0.1397789865732193
1631106862144,0.1634179651737213,-0.3208306729793548,-0.2904258370399475,0.1216682717204094
1631106862243,0.1547281891107559,-0.2997988760471344,-0.2386084944009781,0.1037212535738945
1631106862352,0.1421992629766464,-0.172657772898674,-0.1354715675115585,0.0939566642045974
1631106862431,0.1258421391248703,0.1422592252492904,0.0236294344067573,0.0974505469202995
1631106862574,0.1129104197025299,0.1611593663692474,0.2565995454788208,0.1161333620548248
1631106862653,0.1125819906592369,0.1792623996734619,0.5009589195251465,0.1443313807249069
1631106862749,0.1204140186309814,0.2014888972043991,0.6985194683074951,0.1788453757762909
1631106862855,0.1259824782609939,0.2303024381399154,0.8285626173019409,0.2169239521026611
1631106862952,0.1181699112057685,0.26445272564888,0.9010913372039796,0.2526161670684814
1631106863044,0.0937906131148338,0.3001032769680023,0.9330278635025024,0.2848815619945526
1631106863207,0.0570349767804145,0.3357357084751129,0.945185363292694,0.310079276561737
1631106863291,0.0127688432112336,0.3745454549789428,0.9503374695777892,0.3180060982704162
1631106863354,0.0127688432112336,0.390248566865921,0.9547455310821532,0.3180060982704162
1631106863494,0.0127688432112336,0.3906028866767883,0.9573540091514589,0.3180060982704162
1631106863557,0.0127688432112336,0.3923614919185638,0.958333134651184,0.3180060982704162
1631106863666,0.0127688432112336,0.4029478728771209,0.957431972026825,0.3180060982704162
1631106863807,0.0127688432112336,0.4068854451179504,0.9536181688308716,0.3180060982704162
1631106863934,-0.3024459779262543,0.3550421893596649,0.9460849165916444,0.0004520798393059
1631106863980,-0.2941276133060455,-0.1079950109124183,0.9311581254005432,0.0649012625217437
1631106864073,-0.2149697244167328,-0.1231008917093277,0.8940939903259277,0.1422881484031677
1631106864157,-0.1059433072805404,-0.1401387155055999,0.8150104880332947,0.2281281799077987
1631106864251,-0.0152552481740713,-0.1539103686809539,0.6764810681343079,0.3008060157299042
1631106864405,0.0439233034849166,-0.1591004729270935,0.4789151847362518,0.3437853455543518
1631106864515,0.0966649204492569,-0.1514643132686615,0.250026673078537,0.3655436038970947
1631106864593,0.1560165286064148,-0.1353802531957626,0.0649643987417221,0.3765978813171386
1631106864700,0.2006701529026031,-0.1184443011879921,-0.0299479886889457,0.382574588060379
1631106864794,0.2390048056840896,-0.1107032820582389,-0.0550009161233902,0.3830003142356872
1631106864888,0.2851514816284179,-0.1326348483562469,-0.0610237978398799,0.3779284656047821
1631106865012,0.3526458740234375,-0.1300103366374969,-0.0528938584029674,0.3704014122486114
1631106865089,0.4565945863723755,-0.1267182230949401,-0.0443826951086521,0.3855901062488556
1631106865189,0.5507491827011108,-0.1367165744304657,-0.0398847013711929,0.3975372016429901
1631106865283,0.6146142482757568,-0.148416131734848,-0.0382621884346008,0.4019742608070373
1631106865362,0.6483205556869507,-0.1604181230068206,-0.0408984720706939,0.4002653956413269
1631106865485,0.662095844745636,-0.1704769134521484,-0.0521170757710933,0.3894276320934295
1631106865611,0.6652130484580994,-0.1763404011726379,-0.0673472359776496,0.3650621473789215
1631106865750,0.6638153195381165,-0.1799952983856201,-0.080642931163311,0.3232357501983642
1631106865828,0.6580415964126587,-0.185632050037384,-0.0884642452001571,0.265897661447525
1631106865943,0.6503774523735046,-0.1980448961257934,-0.0903133898973465,0.2076843529939651
1631106866021,0.6423802971839905,-0.2055974304676056,-0.097158171236515,0.1584314852952957
1631106866099,0.6352216005325317,-0.1638313680887222,-0.1073236837983131,0.1276647597551345
1631106866209,0.6343160271644592,-0.0588391907513141,-0.1216885522007942,0.120450958609581
1631106866352,0.6341700553894043,0.0765882357954979,-0.1377874761819839,0.1453285813331604
1631106866430,0.6250525712966919,0.1934521794319152,-0.1431965678930282,0.2060652822256088
1631106866523,0.5946745872497559,0.2761092483997345,-0.1285006254911422,0.281697154045105
1631106866634,0.535690426826477,0.3235610127449035,-0.101127028465271,0.3468526899814605
1631106866731,0.4538819193840027,0.3518183827400207,-0.0750651657581329,0.3864294290542602
1631106866835,0.3787619471549988,0.3715178966522217,-0.0543383918702602,0.4043358564376831
1631106866915,0.3323328197002411,0.3863365650177002,-0.0338968634605407,0.4086723327636719
1631106867024,0.3167637884616852,0.3963808715343475,-0.013440117239952,0.4130438864231109
1631106867173,0.3160112500190735,0.4016666114330292,-0.0096670472994446,0.4229066073894501
1631106867228,0.3189162313938141,0.4037362039089203,-0.0225580129772424,0.4386625289916992
1631106867337,0.3343341648578644,0.405430406332016,-0.0440612658858299,0.4594448208808899
1631106867446,0.3600534200668335,0.4066324830055237,-0.0631488263607025,0.4815955460071563
1631106867535,0.3825177550315857,0.4037596881389618,-0.0608644783496856,0.504855215549469
1631106867627,0.4181620180606842,0.3852553963661194,-0.0288845337927341,0.5534675121307373
1631106867713,0.4961699545383453,0.3425004780292511,0.0321178659796714,0.6589285135269165
1631106867820,0.628736674785614,0.2719312310218811,0.12472864985466,0.8096330165863037
1631106867913,0.7774612903594971,0.1818150281906128,0.227041944861412,0.9518921375274658
1631106868060,0.8982016444206238,0.0925492048263549,0.3180592060089111,1.0547120571136477
1631106868164,0.97183358669281,0.0425946749746799,0.3791514337062835,1.0679717063903809
1631106868255,1.0073124170303345,0.0334068983793258,0.4121982753276825,1.086691975593567
1631106868369,1.020259976387024,0.0362812541425228,0.4246028065681457,1.1127146482467651
1631106868431,1.024698257446289,0.0419114343822002,0.4249606132507324,1.1458029747009275
1631106868541,1.0234951972961426,0.0494861900806427,0.4216378927230835,1.1836210489273071
1631106868681,1.0211477279663086,0.0649392157793045,0.4210741817951202,1.2253599166870115
1631106868744,1.018521428108215,0.0810550823807716,0.4216862916946411,1.223809003829956
1631106868837,1.0416182279586792,0.0983699783682823,0.4218214750289917,1.2683722972869873
1631106868962,1.0652170181274414,0.1195327490568161,0.4269330501556396,1.3185086250305176
1631106869040,1.090868592262268,0.1433847248554229,0.460052877664566,1.3756682872772217
1631106869160,1.112869143486023,0.170388713479042,0.5359209775924683,1.4323904514312744
1631106869285,1.119776725769043,0.1971838474273681,0.654450535774231,1.4702985286712646
1631106869379,1.093050479888916,0.220006838440895,0.6540482640266418,1.4702985286712646
1631106869472,1.0124980211257937,0.2414845079183578,0.6384199857711792,1.4702985286712646
1631106869550,0.8626295924186707,0.2572734653949737,0.6113232374191284,1.4702985286712646
1631106869660,0.6498323678970337,0.2565696537494659,0.5895784497261047,1.4702985286712646
1631106869769,0.4033007025718689,0.2333509474992752,0.5875036716461182,1.4702985286712646
1631106869910,0.174691304564476,0.200627326965332,0.6084795594215393,1.4702985286712646
1631106869988,0.174691304564476,0.200627326965332,0.6462458968162537,1.4702985286712646
1631106870097,0.174691304564476,0.200627326965332,0.6936975121498108,1.4702985286712646
1631106870178,0.174691304564476,0.200627326965332,0.7504559755325317,1.4702985286712646
1631106870272,0.174691304564476,0.200627326965332,0.821870744228363,1.4702985286712646
1631106870366,0.174691304564476,0.200627326965332,0.91360604763031,1.4702985286712646
1631106870491,0.174691304564476,0.200627326965332,0.91360604763031,1.4702985286712646
1631106870584,0.174691304564476,0.200627326965332,0.91360604763031,1.4702985286712646
1631106870694,0.174691304564476,0.200627326965332,0.91360604763031,1.4702985286712646
1631106870787,0.174691304564476,0.200627326965332,0.91360604763031,1.4702985286712646
1631106870912,0.174691304564476,0.200627326965332,0.91360604763031,1.4702985286712646
1631106870975,0.174691304564476,0.200627326965332,0.91360604763031,1.4702985286712646
1631106871085,0.174691304564476,-0.0108107030391693,0.91360604763031,1.4702985286712646
1631106871209,0.3464536666870117,-0.0435478053987026,0.1430107206106186,1.4702985286712646
1631106871319,0.379740446805954,-0.0986265540122985,0.1642467528581619,1.4702985286712646
1631106871397,0.379740446805954,-0.1249847784638404,0.187473326921463,1.4702985286712646
1631106871522,0.379740446805954,-0.043772667646408,0.2182496339082718,1.4702985286712646
1631106871584,0.379740446805954,0.2116989344358444,0.3219211399555206,1.4702985286712646
1631106871740,0.379740446805954,0.5505380630493164,0.531632661819458,1.4702985286712646
1631106871825,0.379740446805954,0.5505380630493164,0.531632661819458,1.4702985286712646
1631106871919,0.379740446805954,0.5505380630493164,0.531632661819458,1.4702985286712646
1631106871997,0.379740446805954,0.5505380630493164,0.531632661819458,1.4702985286712646
1631106872107,0.379740446805954,0.5505380630493164,0.531632661819458,1.4702985286712646
1631106872219,0.379740446805954,0.5505380630493164,0.531632661819458,1.4702985286712646
1631106872328,0.379740446805954,0.5864391922950745,0.5526183247566223,1.4702985286712646
1631106872406,0.3976805806159973,0.5887584686279297,0.586897611618042,1.4702985286712646
1631106872516,0.3976805806159973,0.5813785791397095,0.6254611611366272,1.4702985286712646
1631106872594,0.3976805806159973,0.5753577947616577,0.6582501530647278,1.4702985286712646
1631106872719,0.3976805806159973,0.5738876461982727,0.6745959520339966,1.4702985286712646
1631106872797,0.3976805806159973,0.5803255438804626,0.6750929355621338,1.4702985286712646
1631106872937,0.3976805806159973,0.5929191708564758,0.6680702567100525,1.4702985286712646
1631106873047,0.6071919202804565,0.595179557800293,0.6535161137580872,0.9230905175209044
1631106873141,0.5292673110961914,0.5278432965278625,0.6101826429367065,0.8318557143211365
1631106873203,0.4711601436138153,0.1048466637730598,0.4464718699455261,0.7614867687225342
1631106873312,0.4393881857395172,0.1114335134625434,0.4218972325325012,0.7061314582824707
1631106873390,0.4307200610637665,0.1058753132820129,0.4045011103153229,0.6607921719551086
1631106873547,0.4372421205043793,0.099558800458908,0.394925057888031,0.6229928135871887
1631106873656,0.4405346810817718,0.1041266098618507,0.3877167701721191,0.5886340737342834
1631106873734,0.4335757493972778,0.1113808751106262,0.3801188170909881,0.5574873089790344
1631106873844,0.4202485084533691,0.1141308918595314,0.3341081142425537,0.5306500792503357
1631106873937,0.4095667898654938,0.111942708492279,0.2847635746002197,0.5086398124694824
1631106874015,0.4100202023983001,0.1134674549102783,0.2152083069086074,0.4929916262626648
1631106874140,0.4240047335624695,0.1088986694812774,0.1393215060234069,0.485607773065567
1631106874250,0.361901581287384,0.1026117727160453,0.0851791873574256,0.2851170897483825
1631106874343,0.3571814894676208,0.0909916907548904,0.0613158233463764,0.172925516963005
1631106874468,0.3716404139995575,0.0677298828959465,0.0510403029620647,0.1544668674468994
1631106874562,0.38226518034935,0.0283488966524601,0.047200821340084,0.1746532320976257
1631106874640,0.403629869222641,0.0477949939668178,0.0507480055093765,0.185413047671318
1631106874781,0.4626987874507904,0.2081659436225891,0.0985274091362953,0.1909570693969726
1631106874875,0.571688175201416,0.4456026256084442,0.2143815755844116,0.2100421637296676
1631106874953,0.7005321383476257,0.6490815877914429,0.3577107787132263,0.2474355995655059
1631106875046,0.8123114705085754,0.7839331030845642,0.4743868708610534,0.2888294160366058
1631106875138,0.8889859914779663,0.8558165431022644,0.5478983521461487,0.3211166858673095
1631106875219,0.933427631855011,0.8839862942695618,0.5809732675552368,0.3407220244407654
1631106875375,0.9553232789039612,0.8913108706474304,0.5889146327972412,0.3516984581947326
1631106875500,0.9659561514854432,0.8956952691078186,0.5906312465667725,0.357867568731308
1631106875579,0.9636695384979248,0.9019887447357178,0.594179630279541,0.3553522825241089
1631106875703,0.9541551470756532,0.9087909460067748,0.5997637510299683,0.3393714129924774
1631106875766,0.9430931806564332,0.9146080613136292,0.6038706302642822,0.3085542917251587
1631106875844,0.934467315673828,0.9189097285270692,0.6049214005470276,0.2755885422229767
1631106875971,0.933042287826538,0.921150803565979,0.6035593152046204,0.2555640339851379
1631106876081,0.9372626543045044,0.9224271774291992,0.6019148230552673,0.2555689811706543
1631106876209,0.9385544657707214,0.914549708366394,0.5966529846191406,0.2729147672653198
1631106876318,0.9246022701263428,0.8823680877685547,0.5769991874694824,0.2907210886478424
1631106876365,0.8793569803237915,0.8057168126106262,0.5242020487785339,0.2844406068325043
1631106876474,0.7918928861618042,0.6708442568778992,0.4215319454669952,0.2504732012748718
1631106876584,0.659294843673706,0.4807170033454895,0.2673445343971252,0.1971779018640518
1631106876677,0.5008305907249451,0.2701370120048523,0.0818368196487426,0.1419084519147873
1631106876787,0.3544189929962158,0.1152083277702331,-0.0804329589009285,0.0978161320090293
1631106876880,0.2563436925411224,0.0442982837557792,-0.1705706417560577,0.0667593479156494
1631106876974,0.1985526531934738,-0.0020118691027164,-0.224383994936943,0.0492275729775428
1631106877068,0.1997551172971725,-0.0454012528061866,-0.2788260877132416,0.0525388121604919
1631106877199,0.2202214300632476,-0.0712758898735046,-0.3554690778255462,0.0715317204594612
1631106877339,0.2396708726882934,-0.0767072290182113,-0.4353007376194,0.0928465202450752
1631106877402,0.240621268749237,-0.0780341997742652,-0.4861246645450592,0.1030421406030654
1631106877464,0.2164034992456436,-0.0870247557759285,-0.4965277314186096,0.0934981927275657
1631106877574,0.1758476793766021,-0.1055528745055198,-0.4883451163768768,0.0634255409240722
1631106877683,0.1400538235902786,-0.1241210997104644,-0.4804688096046448,0.0168937258422374
1631106877824,0.1171112284064292,-0.1424312442541122,-0.47944375872612,-0.0322733037173748
1631106877886,0.1125226393342018,-0.1587752550840377,-0.4818831384181976,-0.0581939667463302
1631106877995,0.1188482493162155,-0.1696116626262664,-0.4929609596729278,-0.0595104172825813
1631106878089,0.1360605210065841,-0.1714797616004943,-0.5155630111694336,-0.0435707382857799
1631106878183,0.1629982888698578,-0.1638893336057663,-0.535689651966095,-0.0169837493449449
1631106878277,0.1944878101348877,-0.1542029380798339,-0.5309261679649353,0.0216546934098005
1631106878417,0.2264005541801452,-0.1508873701095581,-0.4993239939212799,0.0774017721414566
1631106878511,0.2518051266670227,-0.1604890376329422,-0.4597328603267669,0.1367990374565124
1631106878620,0.2647574245929718,-0.1901606321334839,-0.4286643862724304,0.1821672916412353
1631106878714,0.2681498825550079,-0.2455406337976455,-0.4111155569553375,0.2083033174276352
1631106878792,0.2730909585952759,-0.3118079900741577,-0.4106810092926025,0.2230535745620727
1631106878901,0.284597098827362,-0.3510876893997192,-0.4256344437599182,0.2323368787765503
1631106879011,0.2978871762752533,-0.3512742221355438,-0.4517377018928528,0.2387683689594268
1631106879136,0.3067134916782379,-0.3329232037067413,-0.4831746220588684,0.2437822818756103
1631106879217,0.3134756088256836,-0.3069658577442169,-0.5092673301696777,0.2452584058046341
1631106879295,0.3344595432281494,-0.2697727382183075,-0.5229226350784302,0.2442038655281067
1631106879389,0.3704083859920501,-0.2219335585832595,-0.5247060656547546,0.2400345355272293
1631106879498,0.4124501049518585,-0.1667081713676452,-0.521247386932373,0.2354044020175933
1631106879639,0.4398350119590759,-0.1150529906153678,-0.5152652263641357,0.2309588491916656
1631106879733,0.4445243179798126,-0.0782015547156333,-0.5114059448242188,0.2255948036909103
1631106879826,0.4284879267215729,-0.0545146912336349,-0.5006294250488281,0.2128101736307144
1631106879920,0.4007104337215423,-0.0364411324262619,-0.4750552177429199,0.1837229132652282
1631106880014,0.3691384494304657,-0.0198491010814905,-0.4182897508144378,0.138053685426712
1631106880092,0.3423988223075866,-0.0066272309049963,-0.3285897076129913,0.0840910747647285
1631106880264,0.3266859352588653,-0.0010529741412028,-0.2312449365854263,0.03999675065279
1631106880342,0.3243424892425537,-0.0063694897107779,-0.1512381434440612,0.0228111892938613
1631106880451,0.340423971414566,-0.0236143302172422,-0.1026525646448135,0.03898761048913
1631106880545,0.3704239428043365,-0.0430626012384891,-0.0812938064336776,0.0752036124467849
1631106880623,0.4011176824569702,-0.051949393004179,-0.0693156793713569,0.1111929565668106
1631106880701,0.415198415517807,-0.0444164648652076,-0.0493155904114246,0.1330750882625579
1631106880826,0.4033242464065552,-0.0213569588959217,-0.0228754933923482,0.1380380094051361
1631106880967,0.3694416880607605,0.007185464259237,0.0008543713483959,0.1335424780845642
1631106881060,0.3193621039390564,0.021231036633253,0.0158693492412567,0.1219473704695701
1631106881170,0.2869997322559356,0.018728082999587,0.0225484501570463,0.1069724708795547
1631106881248,0.2951637804508209,0.0097087938338518,0.0255510210990905,0.0961124673485755
1631106881326,0.3424947261810303,0.0008074546349234,0.0250849053263664,0.0931938365101814
1631106881470,0.4073463082313537,-0.0166712328791618,0.0161367710679769,0.097331628203392
1631106881564,0.429785668849945,-0.0170012712478637,-0.0045825839042663,0.0949937775731086
1631106881642,0.4543145895004272,0.0684110969305038,0.0091215902939438,0.0904351323843002
1631106881751,0.4767797589302063,0.2752335369586944,0.1200484782457351,0.0821424350142479
1631106881845,0.4892976880073547,0.3002043664455414,0.3689767122268677,0.0600260235369205
1631106881939,0.4862061440944671,0.3286347091197967,0.3811136186122894,0.0135402865707874
1631106882095,0.4688839614391327,0.3590912818908691,0.4036298990249634,-0.0622139349579811
1631106882157,0.4484413862228393,0.3886274397373199,0.4318899810314178,-0.159758448600769
1631106882267,0.4469247758388519,0.4139290153980255,0.4593702554702759,-0.2316451221704483
1631106882360,0.47516930103302,0.4320556819438934,0.4858365356922149,-0.2419396191835403
1631106882454,0.5247750878334045,0.4441919922828674,0.5152949094772339,-0.2013082802295684
1631106882548,0.5962746143341064,0.4615538120269775,0.5531888008117676,-0.1349293887615203
1631106882673,0.5962746143341064,0.4919812679290771,0.6022717952728271,-0.1349293887615203
1631106882798,0.5962746143341064,0.6737331748008728,0.7168813347816467,-0.1349293887615203
1631106882891,0.5962746143341064,0.77909916639328,0.8100149631500244,-0.1349293887615203
1631106882985,0.5962746143341064,0.8578848838806152,0.879149317741394,-0.1349293887615203
1631106883063,0.5962746143341064,0.9209541082382202,0.9325080513954164,-0.1349293887615203
1631106883173,0.7119321227073669,0.951530694961548,0.9829748272895812,-0.1349293887615203
1631106883298,0.6305949091911316,0.9240869879722596,1.0098044872283936,-0.1349293887615203
1631106883376,0.5622351765632629,0.9148211479187012,0.927495002746582,-0.1349293887615203
1631106883457,0.5132476091384888,0.8979594111442566,0.927495002746582,-0.1349293887615203
1631106883598,0.4869069755077362,0.8752034306526184,0.8468689322471619,-0.1349293887615203
1631106883692,0.4872394502162933,0.8489862084388733,0.7743872404098511,-0.1349293887615203
1631106883785,0.5013346076011658,0.8176560401916504,0.7105205655097961,1.080177664756775
1631106883895,0.5138355493545532,0.7853895425796509,0.6559937000274658,1.0050621032714844
1631106884004,0.513241171836853,0.756057858467102,0.6097621321678162,0.9418603777885436
1631106884113,0.4989702403545379,0.731586217880249,0.5696746706962585,0.8842881321907043
1631106884194,0.4823061823844909,0.7106533050537109,0.533156156539917,0.8311641216278076
1631106884287,0.4710815548896789,0.6538608074188232,0.4202029705047607,0.7850829362869263
1631106884366,0.3961216509342193,0.6029549837112427,0.2604230344295501,0.7473559975624084
1631106884522,0.3611395061016083,0.5537227988243103,0.0435292348265647,0.6128716468811035
1631106884616,0.3591465950012207,0.4995021224021911,-0.3205064237117767,0.4439139068126678
1631106884694,0.3756922483444214,0.4375524222850799,-0.3006320595741272,0.1895375251770019
1631106884787,0.3915717899799347,0.3577659428119659,-0.2717029154300689,0.2070057839155197
1631106884881,0.3991063833236694,0.2761836946010589,-0.2340463548898697,0.2152276933193206
1631106885006,0.4182582199573517,0.2303576618432998,-0.1885695904493332,0.2152276933193206
1631106885146,0.4295165240764618,0.2232015132904052,-0.1316452473402023,0.2152276933193206
1631106885243,0.4240850806236267,0.3023386597633362,0.0329613275825977,0.2152276933193206
1631106885321,0.4023056626319885,0.4949171245098114,0.2496070563793182,0.1961958259344101
1631106885383,0.3726705014705658,0.7149589657783508,0.4457035064697265,0.1704326719045639
1631106885493,0.354872465133667,0.887325644493103,0.586645781993866,0.1566800475120544
1631106885602,0.3637456595897674,0.9935389161109924,0.670979380607605,0.1674911379814148
1631106885743,0.3851850032806396,1.045190453529358,0.7102759480476379,0.2025750875473022
1631106885821,0.4013838768005371,1.0711559057235718,0.7242414951324463,0.2439982146024704
1631106885930,0.3994782269001007,1.0998562574386597,0.7300724983215332,0.2787182331085205
1631106886008,0.3713331818580627,1.109066367149353,0.739137589931488,0.3112987279891968
1631106886118,0.3713331818580627,1.1296168565750122,0.7494386434555054,0.3112987279891968
1631106886214,0.3713331818580627,1.1632546186447144,0.7618820071220398,0.3112987279891968
1631106886339,0.3713331818580627,1.2015665769577026,0.7748609185218811,0.3112987279891968
1631106886432,0.3713331818580627,1.2324347496032717,0.7844439148902893,0.3112987279891968
1631106886526,1.105211853981018,1.2472548484802246,0.7875347137451172,0.3112987279891968
1631106886636,1.207014083862305,1.2491182088851929,0.7805092334747314,1.1231061220169067
1631106886729,1.2433384656906128,1.237183928489685,0.7573005557060242,1.1195008754730225
1631106886807,1.2348226308822632,1.201774835586548,0.706810712814331,1.0817925930023191
1631106886948,1.2011021375656128,1.1306710243225098,0.6185123324394226,1.029145121574402
1631106887041,1.1596115827560425,1.0238876342773438,0.4990740120410919,0.9755350947380066
1631106887151,1.119266152381897,0.9050524234771729,0.3773944973945617,0.9261081218719482
1631106887247,1.083110213279724,0.8137763142585754,0.2979817390441894,0.8829326629638672
1631106887325,1.0516371726989746,0.7832022309303284,0.2690282166004181,0.8455042839050293
1631106887419,1.0237146615982056,0.7547734379768372,0.2591248154640198,0.8122042417526245
1631106887559,0.9978998303413392,0.7322380542755127,0.235952615737915,0.7813783288002014
1631106887669,0.973505198955536,0.6818385720252991,0.2034332454204559,0.7520694732666016
1631106887747,0.9729025959968568,0.5825063586235046,0.156290516257286,0.725273072719574
1631106887840,0.9584640264511108,0.4203288853168487,0.0946545079350471,0.693172812461853
1631106887918,0.9228050112724304,0.1975418478250503,0.0365743078291416,0.6615904569625854
1631106888028,0.8541485667228699,-0.0272450260818004,0.0088546462357044,0.635721743106842
1631106888184,0.7766109108924866,-0.1325462311506271,0.0256359428167343,0.6642600297927856
1631106888278,0.749281108379364,-0.1027077883481979,0.0691637769341468,0.7703074216842651
1631106888340,0.8181503415107727,-0.0367811881005764,0.1228519007563591,0.7665827870368958
1631106888466,0.934812605381012,0.0121100675314664,0.1774868071079254,0.7856985926628113
1631106888543,0.9550473093986512,0.0471733063459396,0.2228116393089294,0.8162868618965149
1631106888653,0.9815882444381714,0.0868129134178161,0.2586041688919067,0.8524090051651001
1631106888778,1.0107500553131104,0.1364126205444336,0.280746191740036,0.8912836909294128
1631106888887,1.0415945053100586,0.1860824078321457,0.2943965792655945,0.933116853237152
1631106888949,1.0752218961715698,0.2225730866193771,0.2987861633300781,0.9797388911247252
1631106889043,1.113506555557251,0.2410075962543487,0.298139214515686,1.0336792469024658
1631106889170,1.1579265594482422,0.2532556354999542,0.2942338585853576,1.0976182222366333
1631106889264,1.2091535329818726,0.265960693359375,0.2891651690006256,1.1245170831680298
1631106889374,1.2147579193115234,0.2734603583812713,0.2869032025337219,1.1292136907577517
1631106889499,1.2002604007720947,0.2755961120128631,0.2858298122882843,1.0984411239624023
1631106889577,1.1739466190338137,0.2677804231643677,0.2809292078018188,1.028642177581787
1631106889670,1.1236587762832642,0.2436128258705139,0.2644776999950409,0.8680253028869629
1631106889749,1.0273381471633911,0.2020705938339233,0.2306139469146728,0.3639962077140808
1631106889842,0.8146215677261353,0.1554896533489227,0.1755707710981369,0.3357757329940796
1631106889983,0.1281071454286575,0.1190773025155067,0.1071477383375167,0.3068118095397949
1631106890092,0.1156723573803901,0.0912199765443801,0.0378239154815673,0.2745372951030731
1631106890217,0.1008482873439788,0.0553887486457824,-0.0308104306459426,0.2414399683475494
1631106890280,0.0934875160455703,0.0022422841284424,-0.0847113654017448,0.2143721580505371
1631106890389,0.1065971776843071,-0.0591681636869907,-0.1163384392857551,0.1955694854259491
1631106890452,0.1327738910913467,-0.1105990633368492,-0.1086289212107658,0.1856497079133987
1631106890608,0.16842021048069,-0.1363762617111206,-0.0662200078368187,0.1812660098075866
1631106890702,0.2055661380290985,-0.1567237973213195,-0.0039071990177035,0.1779559701681137
1631106890811,0.2386807352304458,-0.1780120879411697,0.0476216003298759,0.0862443521618843
1631106890889,0.1964748650789261,-0.1695561110973358,0.0724939554929733,0.0550415031611919
1631106890967,0.1957608312368393,-0.1010484546422958,0.0879821702837944,0.0423433855175972
1631106891076,0.21165631711483,0.0012962189503014,0.1283708959817886,0.0294209234416484
1631106891221,0.2355291694402694,0.2011361271142959,0.2505863010883331,0.0107461307197809
1631106891315,0.2639333307743072,0.2264284342527389,0.4571371674537658,-0.0086960168555378
1631106891393,0.2919683754444122,0.2514674663543701,0.4811537563800812,-0.024418594315648
1631106891518,0.3166588544845581,0.2762227058410644,0.5046447515487671,-0.0303749255836009
1631106891596,0.3465335071086883,0.3020426034927368,0.527449369430542,-0.0164873842149972
1631106891690,0.387255311012268,0.330567866563797,0.5534024834632874,0.0169151686131954
1631106891815,0.4341237843036651,0.361879825592041,0.5848154425621033,0.0533557012677192
1631106891908,0.4745003879070282,0.3956019580364227,0.6099066734313965,0.0835333541035652
1631106892033,0.4745003879070282,0.3867820501327514,0.6164153814315796,0.0835333541035652
1631106892112,0.4745003879070282,0.3728659152984619,0.6107368469238281,0.0835333541035652
1631106892192,0.4745003879070282,0.3625489175319671,0.5971679091453552,0.0835333541035652
1631106892286,0.4745003879070282,0.3508432507514953,0.5856994390487671,0.0835333541035652
1631106892426,0.4745003879070282,0.3251652419567108,0.5825055241584778,0.0835333541035652
1631106892567,0.4745003879070282,0.2582001388072967,0.5791179537773132,0.0835333541035652
1631106892645,0.9406444430351256,0.1424448192119598,0.5575061440467834,0.0835333541035652
1631106892723,0.9341161847114564,-0.4731476604938507,0.4689943790435791,0.838442862033844
1631106892817,0.9007066488265991,-0.3800574541091919,0.1178327053785324,0.773259162902832
1631106892895,0.855886697769165,-0.2984450459480285,0.0884617567062377,0.7091140747070312
1631106893051,0.8106371760368347,-0.2472390085458755,0.062191367149353,0.6500934362411499
1631106893129,0.7700737118721008,-0.2273184657096862,0.0465667843818664,0.5996356010437012
1631106893258,0.7327404618263245,-0.2152087688446045,0.042921956628561,0.5598350763320923
1631106893320,0.6996766924858093,-0.199951171875,0.0436919033527374,0.5302915573120117
1631106893429,0.670183002948761,-0.1828614324331283,-0.0180685929954051,0.5059252977371216
1631106893523,0.6426799893379211,-0.160481721162796,-0.0471111536026001,0.4839386940002441
1631106893664,0.6155759692192078,-0.1364668756723404,-0.0574998781085014,0.4639790058135986
1631106893742,0.5899022221565247,-0.1288104206323623,-0.0540093220770359,0.44532310962677
1631106893836,0.5430171489715576,-0.1311850994825363,-0.0418043993413448,0.4279293417930603
1631106893930,0.480557918548584,-0.1344581991434097,-0.0285031776875257,0.3354023993015289
1631106894039,0.3817569315433502,-0.1348987519741058,-0.0182476080954074,0.2307781875133514
1631106894101,0.2379208654165268,-0.1436855047941208,-0.0106892194598913,0.1260445415973663
1631106894245,0.0939552038908004,-0.1644645184278488,-0.0078117605298757,0.0524111501872539
1631106894339,-0.0047495304606854,-0.1861521899700164,-0.0097475470975041,0.0251364409923553
1631106894479,-0.0588502772152423,-0.1538383513689041,-0.0073559400625526,0.0255957171320915
1631106894557,-0.0854428261518478,0.0003354611690156,0.0131388492882251,0.0421682856976985
1631106894635,-0.1079001575708389,0.2697376608848572,0.0773108974099159,0.0616002455353736
1631106894760,-0.1225189939141273,0.2869078516960144,0.1911959201097488,0.073115199804306
1631106894901,-0.1416322439908981,0.3041910231113434,0.3220784664154053,0.0706945955753326
1631106894979,-0.1680376380681991,0.3218573629856109,0.4287908971309662,0.0623598881065845
1631106895058,-0.1931697577238083,0.342444896697998,0.4937914311885834,0.0540982447564601
1631106895157,-0.1966777890920639,0.4639545381069183,0.5224189758300781,0.045367244631052
1631106895251,-0.1882382482290268,0.5022913813591003,0.528380811214447,0.0384967662394046
1631106895345,-0.1703794002532959,0.5175727605819702,0.5214347243309021,0.0331408195197582
1631106895485,-0.1703794002532959,0.5274459719657898,0.5115143656730652,0.0331408195197582
1631106895610,-0.1703794002532959,0.5322555899620056,0.502522885799408,0.0331408195197582
1631106895657,-0.1703794002532959,0.5356912612915039,0.4969029426574707,0.0331408195197582
1631106895782,-0.1703794002532959,0.5366511344909668,0.4944517612457275,0.0331408195197582
1631106895845,-0.1703794002532959,0.5335772633552551,0.4950028657913208,0.0331408195197582
1631106895985,0.2417084723711013,0.5153067111968994,0.495733231306076,0.0755820572376251
1631106896095,0.1945526450872421,0.4489392340183258,0.4904268383979797,0.0222826302051544
1631106896177,0.163610503077507,0.2066760957241058,0.4647851586341858,-0.0118992831557989
1631106896270,0.1535000950098037,0.1820410639047622,0.4007174968719482,-0.008106168359518
1631106896364,0.1656219214200973,0.1654224693775177,0.2825819551944732,0.0394486784934997
1631106896505,0.182667076587677,0.1609049141407013,0.1123790219426155,0.0919205844402313
1631106896583,0.1914184391498565,0.1637146770954132,-0.0745470076799392,0.1310819089412689
1631106896692,0.1911074817180633,-0.0065258531831204,-0.2168817520141601,0.155947059392929
1631106896786,0.1864674091339111,-0.0768273994326591,-0.2874647080898285,0.1695537269115448
1631106896911,0.1869519352912902,-0.095050536096096,-0.313213050365448,0.1753709763288498
1631106897005,0.190422236919403,-0.1009962409734726,-0.3360404670238495,0.1717838197946548
1631106897083,0.2042717933654785,-0.0997906774282455,-0.3602422475814819,0.1637755185365677
1631106897161,0.2123985141515731,-0.0988651886582374,-0.3833568692207336,0.1464568525552749
1631106897320,0.2439023703336715,-0.099923089146614,-0.4034080505371094,0.1538613736629486
1631106897429,0.2692266404628753,-0.1033711060881614,-0.4273218810558319,0.1619922220706939
1631106897507,0.2891245484352112,-0.1091369464993476,-0.4552028179168701,0.177222654223442
1631106897601,0.3100322782993316,-0.1115273907780647,-0.4791707992553711,0.2053078711032867
1631106897695,0.3317582607269287,-0.107112668454647,-0.4936516284942627,0.2434025108814239
1631106897820,0.345968633890152,-0.1001253351569175,-0.5023651123046875,0.2739039361476898
1631106897929,0.3495640754699707,-0.1056608110666275,-0.5117943286895752,0.2922765910625458
1631106898023,0.3451366722583771,-0.1367466300725937,-0.5369623899459839,0.3047225773334503
1631106898117,0.3359858691692352,-0.1930939108133316,-0.5722988247871399,0.3171774744987488
1631106898197,0.3240390419960022,-0.2581638693809509,-0.5894540548324585,0.332604706287384
1631106898307,0.3127284646034241,-0.3187062740325928,-0.5863471627235413,0.3481170833110809
1631106898401,0.3015055358409881,-0.3695981502532959,-0.567684531211853,0.363058865070343
1631106898525,0.2931462228298187,-0.4116516411304474,-0.5476884245872498,0.3814392387866974
1631106898619,0.2851467728614807,-0.4406318664550781,-0.5188526511192322,0.4035918712615967
1631106898729,0.2690295279026031,-0.460588127374649,-0.4754970967769623,0.4190746247768402
1631106898822,0.2407653033733368,-0.468564361333847,-0.4230333566665649,0.4230368733406067
1631106898932,0.2126956433057785,-0.4725935459136963,-0.3679569065570831,0.4198468029499054
1631106899010,0.1822084784507751,-0.4865754544734955,-0.3271608352661133,0.4082866013050079
1631106899150,0.1446587741374969,-0.5119182467460632,-0.3070746064186096,0.3892492949962616
1631106899244,0.0956623181700706,-0.5398910045623779,-0.3005594909191131,0.3615656793117523
1631106899338,0.049092911183834,-0.5523930191993713,-0.2988513708114624,0.3323939144611358
1631106899431,0.0168847814202308,-0.5351502895355225,-0.2942469120025635,0.3030864894390106
1631106899510,0.0112071549519896,-0.4989349842071533,-0.2819342017173767,0.2731123864650726
1631106899603,0.0354427061975002,-0.4629066884517669,-0.269957035779953,0.2411024421453476
1631106899744,0.0810984373092651,-0.4402803182601928,-0.2642889320850372,0.2026019692420959
1631106899853,0.1281758546829223,-0.4297138750553131,-0.2614204287528991,0.1577296406030655
1631106899947,0.1608098447322845,-0.4270212054252624,-0.2481790333986282,0.1077555567026138
1631106900056,0.1841934770345688,-0.4246602952480316,-0.2137215584516525,0.0555183067917823
1631106900166,0.1992535144090652,-0.404536098241806,-0.1724545210599899,-0.0025479805190116
1631106900244,0.2086950093507766,-0.3667144179344177,-0.1463126689195633,-0.0506751500070095
1631106900416,0.2127645015716552,-0.3165125250816345,-0.142028272151947,-0.0684252753853797
1631106900478,0.2147103399038314,-0.2640458643436432,-0.1551233381032943,-0.0346768647432327
1631106900556,0.2202641367912292,-0.2197743505239486,-0.1712800115346908,0.05338616669178
1631106900650,0.2315255552530288,-0.1921625435352325,-0.1810632348060608,0.1615082025527954
1631106900759,0.2445878833532333,-0.1854464560747146,-0.1860416084527969,0.2472265660762787
1631106900853,0.2575006484985351,-0.1989374160766601,-0.1887275874614715,0.3011789321899414
1631106900947,0.2666985094547272,-0.2280014753341674,-0.1856850534677505,0.3254239857196808
1631106901072,0.2643773257732391,-0.2571729719638824,-0.1773145645856857,0.3301829397678375
1631106901181,0.2489385455846786,-0.2731835544109344,-0.1667897850275039,0.3263256549835205
1631106901259,0.2253403812646865,-0.271479070186615,-0.1635698080062866,0.3229131400585174
1631106901369,0.207498088479042,-0.2613058388233185,-0.1702570468187332,0.3295246362686157
1631106901447,0.2133275717496872,-0.250793993473053,-0.1925160735845565,0.3456831574440002
1631106901587,0.2354748547077179,-0.2432649582624435,-0.2359968572854995,0.3623494207859039
1631106901681,0.2630897164344787,-0.2441726773977279,-0.2943713068962097,0.3723871409893036
1631106901790,0.2939339876174927,-0.2530765831470489,-0.3568975031375885,0.3769274055957794
1631106901884,0.3239308297634125,-0.2716782093048095,-0.4004276096820831,0.3771047294139862
1631106901962,0.351959228515625,-0.2994771003723144,-0.4194411337375641,0.3660649061203003
1631106902056,0.3737277388572693,-0.3188525140285492,-0.4177672564983368,0.3316588401794433
1631106902212,0.3891671597957611,-0.3016240298748016,-0.4111029505729675,0.2675280272960663
1631106902321,0.4079328775405884,-0.235065221786499,-0.3933930695056915,0.1946583092212677
1631106902368,0.4279272258281708,-0.1367835253477096,-0.3539801836013794,0.1398746520280838
1631106902446,0.4420392513275146,-0.0454173795878887,-0.3084570467472076,0.1238332763314247
1631106902556,0.4501327276229858,0.016852593049407,-0.2781067192554474,0.1394946426153183
1631106902649,0.4521511495113373,0.0443739481270313,-0.2680979967117309,0.1593225598335266
1631106902806,0.4492910206317901,0.0493952631950378,-0.2711972296237945,0.1704577505588531
1631106902899,0.4398671090602875,0.044117946177721,-0.2777121961116791,0.1709079891443252
1631106903009,0.4182641506195068,0.0399733111262321,-0.2828382849693298,0.1661052703857422
1631106903102,0.3853231072425842,0.0433861836791038,-0.2859813570976257,0.1641755849123001
1631106903165,0.3403009176254272,0.0509953238070011,-0.2829815745353699,0.1690433770418167
1631106903290,0.2814747393131256,0.0563524700701236,-0.2598501741886139,0.1694490760564804
1631106903415,0.2170808613300323,0.0551324263215065,-0.2272300124168396,0.1609019935131073
1631106903509,0.1524351984262466,0.0501962043344974,-0.1963069587945938,0.1503373831510543
1631106903602,0.0971698760986328,0.0433425717055797,-0.1786997765302658,0.1480953842401504
1631106903712,0.0578268021345138,0.0302654188126325,-0.1724205613136291,0.1538876146078109
1631106903774,0.0208096504211425,-0.0026468788273632,-0.1806755661964416,0.1581702530384063
1631106903868,-0.0165042988955974,-0.0655261203646659,-0.2069819271564483,0.1498326361179351
1631106904040,-0.0476692728698253,-0.1433437615633011,-0.2384011596441269,0.1229611858725547
1631106904151,-0.0736410245299339,-0.1986943632364273,-0.2554574608802795,0.0822736993432045
1631106904198,-0.0937155410647392,-0.1881085038185119,-0.2429744005203247,0.0419767498970031
1631106904292,-0.1057086810469627,-0.1277130097150802,-0.2105950564146042,0.0122473994269967
1631106904417,-0.0998360887169838,-0.0590718314051628,-0.1832780539989471,-0.0079283891245722
1631106904479,-0.0626149699091911,-0.0129620060324668,-0.1695403009653091,-0.0211295373737812
1631106904620,-0.0097421202808618,0.0045047658495604,-0.1588169932365417,-0.0310369879007339
1631106904745,0.0471517480909824,0.0050936327315866,-0.147179514169693,-0.0283468533307313
1631106904839,0.0993654429912567,0.0038708075881004,-0.1447199583053589,-0.0065671186894178
1631106904917,0.1375282853841781,0.0091617153957486,-0.1447590738534927,0.0298298336565494
1631106905011,0.1673026382923126,0.0309449937194585,-0.1357888877391815,0.0781004354357719
1631106905089,0.1957413852214813,0.0595600716769695,-0.1115301921963691,0.1409527361392974
1631106905248,0.2124130129814148,0.091715432703495,-0.0660647302865982,0.1489894688129425
1631106905341,0.2199262380599975,0.1632732450962066,-0.0018189429538324,0.1543852239847183
1631106905435,0.219035804271698,0.3120701313018799,0.142516478896141,0.1646801978349685
1631106905529,0.217253029346466,0.5226032137870789,0.3589474856853485,0.1846367269754409
1631106905638,0.2263050228357315,0.7280983328819275,0.5726248025894165,0.2127426862716674
1631106905716,0.2539979219436645,0.749184787273407,0.7367134690284729,0.2488373965024948
1631106905841,0.2929307520389557,0.7694588303565979,0.8424530029296875,0.2901398837566376
1631106905967,0.3267194628715515,0.7914494872093201,0.9002206325531006,0.3307829797267914
1631106906060,0.3397503495216369,0.8187687397003174,0.9283303022384644,0.3649049997329712
1631106906138,0.3298375010490417,0.8212960958480835,0.9402260184288024,0.3936760425567627
1631106906204,0.2983754873275757,0.8211915493011475,0.9443319439888,0.4150706827640533
1631106906328,0.2983754873275757,0.8192669749259949,0.9450060725212096,0.4150706827640533
1631106906453,0.2983754873275757,0.8166221976280212,0.9436911344528198,0.4150706827640533
1631106906547,0.2983754873275757,0.8115934133529663,0.9409664273262024,0.4150706827640533
1631106906656,0.2983754873275757,0.8048917055130005,0.9378182291984558,0.4150706827640533
1631106906750,0.1475968211889267,0.7961629033088684,0.9334805607795716,0.3196991086006164
1631106906844,0.1012489348649978,0.7739483714103699,0.9270431399345398,0.2625050544738769
1631106906922,0.0879061967134475,0.7101593017578125,0.9074163436889648,0.2167523056268692
1631106907062,0.0999793112277984,0.5296237468719482,0.857571542263031,0.1856196671724319
1631106907156,0.1111726984381675,-0.2036700695753097,0.761055588722229,0.1575459837913513
1631106907238,0.1064603701233863,-0.1817071288824081,0.6075742244720459,0.1272458881139755
1631106907331,0.0879708901047706,-0.1628589928150177,0.4043393433094024,0.0972030758857727
1631106907441,0.0743255019187927,-0.1402889192104339,0.1866921782493591,0.0808304622769355
1631106907550,0.0890342518687248,-0.1236293464899063,0.0046165874227881,0.0935472026467323
1631106907659,0.1346969455480575,-0.1446254849433899,-0.1031332910060882,0.1328379809856414
1631106907769,0.1990756541490554,-0.1453380435705185,-0.1464870721101761,0.1776569187641143
1631106907878,0.241084948182106,-0.1334664672613144,-0.1514707803726196,0.2042884230613708
1631106907956,0.2495052367448806,-0.1195327788591384,-0.1411256939172744,0.180799126625061
1631106908050,0.2613380551338196,-0.1023258194327354,-0.1306450068950653,0.1551259756088256
1631106908159,0.2809766829013824,-0.0752409771084785,-0.1334632635116577,0.1411307007074356
1631106908300,0.3044942915439605,-0.0378566570580005,-0.1443058252334594,0.1369533687829971
1631106908394,0.3281774818897247,0.0047699501737952,-0.151379182934761,0.1626757532358169
1631106908487,0.3506554663181305,0.0407312400639057,-0.1521555483341217,0.2108957022428512
1631106908597,0.3855713903903961,0.0639836564660072,-0.1455218493938446,0.2830342948436737
1631106908659,0.4387179017066955,0.0743245780467987,-0.1344285458326339,0.3784925937652588
1631106908769,0.4963982105255127,0.0805178731679916,-0.1231972202658653,0.4726158678531647
1631106908894,0.5472537279129028,0.0855981260538101,-0.1205014884471893,0.5487584471702576
1631106909019,0.5833801031112671,0.0864811986684799,-0.1199065521359443,0.6016074419021606
1631106909128,0.6005323529243469,0.0861823558807373,-0.1204569935798645,0.6316177248954773
1631106909194,0.6008269190788269,0.0847992449998855,-0.1219600290060043,0.6438342928886414
1631106909288,0.58297199010849,0.0848631858825683,-0.1246228590607643,0.6463980078697205
1631106909397,0.5599783658981323,0.0874189138412475,-0.1254866123199463,0.6464762091636658
1631106909507,0.5421552658081055,0.0918116420507431,-0.1227075085043907,0.6476067900657654
1631106909585,0.5292794108390808,0.0927741155028343,-0.1162957772612571,0.6481494307518005
1631106909694,0.5189689993858337,0.0825368613004684,-0.1052822545170784,0.6473885178565979
1631106909788,0.5146054625511169,0.060712344944477,-0.0899364054203033,0.6462904810905457
1631106909866,0.515783429145813,0.03446476906538,-0.0752949193120002,0.6404440402984619
1631106909991,0.5154948234558105,0.0171445831656456,-0.0692175328731536,0.6269026398658752
1631106910121,0.4979723393917084,0.0166149158030748,-0.0815685018897056,0.5983827710151672
1631106910218,0.4536393582820892,0.0248901136219501,-0.1131218820810318,0.5472890138626099
1631106910296,0.3894655108451843,0.0284822154790163,-0.1559530347585678,0.480223149061203
1631106910421,0.3180876076221466,0.0242924094200134,-0.1968738436698913,0.4075124859809875
1631106910515,0.2489893287420272,0.0150291929021477,-0.2283942401409149,0.3481818735599518
1631106910608,0.1904826164245605,0.0069933058694005,-0.2489482164382934,0.3131225109100342
1631106910702,0.1450204104185104,0.00137245724909,-0.260010302066803,0.2919791638851166
1631106910827,0.1119774281978607,-0.0006423483137041,-0.265812873840332,0.272627055644989
1631106910905,0.0973861292004585,-0.008157517760992,-0.2593181729316711,0.2533977031707763
1631106910999,0.0896493569016456,-0.0216236021369695,-0.2361034005880355,0.2393192499876022
1631106911108,0.0922906547784805,-0.034487884491682,-0.1980531960725784,0.2418101727962494
1631106911205,0.1143847852945327,-0.0322824716567993,-0.1672214865684509,0.2696083784103393
1631106911345,0.1450864970684051,-0.0194624066352844,-0.1494725346565246,0.315892606973648
1631106911423,0.1769226342439651,-0.0017280838219448,-0.1449347734451294,0.3632649481296539
1631106911564,0.2050807923078537,0.008795591071248,-0.1447745114564895,0.398924857378006
1631106911626,0.2237907350063324,0.0098509369418025,-0.1476005464792251,0.4177120327949524
1631106911705,0.23160982131958,-0.0003485070483293,-0.1527034938335418,0.4215253889560699
1631106911814,0.2332744300365448,-0.0077087576501071,-0.1557790338993072,0.412909597158432
1631106911939,0.2289943397045135,-0.0071516982279717,-0.1548331826925277,0.4006891250610351
1631106912048,0.2218688130378723,0.0007044650847092,-0.1532325446605682,0.3807936310768127
1631106912111,0.213723823428154,0.0124412765726447,-0.1546693593263626,0.3526618480682373
1631106912236,0.2026690691709518,0.0280123855918645,-0.1611215472221374,0.3224150538444519
1631106912329,0.1973931491374969,0.0492523349821567,-0.1684959530830383,0.2959216833114624
1631106912407,0.1966526061296463,0.0716718435287475,-0.1816346794366836,0.281540960073471
1631106912552,0.1977977007627487,0.0879986658692359,-0.2081938832998275,0.2831531763076782
1631106912677,0.1953974366188049,0.0958149284124374,-0.2527332305908203,0.2884640693664551
1631106912755,0.1760349720716476,0.0896462276577949,-0.28815558552742,0.2772305905818939
1631106912833,0.1372857540845871,0.072582259774208,-0.2967343032360077,0.2399611473083496
1631106912942,0.0764709040522575,0.0449427738785743,-0.2816722691059112,0.1814388036727905
1631106913036,0.0138973118737339,0.015234213322401,-0.2596659958362579,0.1288026422262191
1631106913177,-0.0357871279120445,-0.0148790385574102,-0.2294399142265319,0.1074255928397178
1631106913255,-0.0349683351814746,-0.0381931960582733,-0.1922623068094253,0.123003713786602
1631106913333,0.0327565744519233,-0.0575330443680286,-0.1547806560993194,0.1656583249568939
1631106913444,0.1351798474788665,-0.068214900791645,-0.1278159618377685,0.2168269902467727
1631106913523,0.2328061014413833,-0.0658652856945991,-0.10539411008358,0.267824649810791
1631106913616,0.3027175366878509,-0.0577261857688427,-0.0832711234688758,0.3033930659294128
1631106913772,0.3383904993534088,-0.0565356723964214,-0.0602889470756053,0.3212884962558746
1631106913866,0.3512604534626007,-0.0741061642765998,-0.0404054448008537,0.3271687924861908
1631106913960,0.3524013161659241,-0.1058277934789657,-0.0210028700530529,0.3302869498729706
1631106914038,0.3485060334205627,-0.1326063424348831,-0.000283409084659,0.3326179981231689
1631106914116,0.3404093384742737,-0.1504786163568496,0.0189551226794719,0.3334465026855469
1631106914228,0.3306027352809906,-0.1594038903713226,0.028531739488244,0.3305079042911529
1631106914399,0.3194812834262848,-0.1678484380245208,0.0235019493848085,0.3265592455863952
1631106914493,0.3114985227584839,-0.1765289902687072,0.0051251915283501,0.3198265433311462
1631106914587,0.3061055243015289,-0.1894675195217132,-0.0197669342160224,0.3143686354160309
1631106914681,0.3131649494171142,-0.2004435509443283,-0.0482716038823127,0.3114960789680481
1631106914759,0.3327736854553222,-0.2021106779575348,-0.0798040330410003,0.3110988736152649
1631106914837,0.3492442071437835,-0.199092760682106,-0.1105062365531921,0.3054307103157043
1631106914977,0.3503966629505157,-0.2074948251247406,-0.126312643289566,0.289580762386322
1631106915070,0.3341982960700989,-0.2459846436977386,-0.1308186054229736,0.2634941339492798
1631106915188,0.3148107528686523,-0.3133160769939422,-0.1362457126379013,0.2428759783506393
1631106915266,0.3109304308891296,-0.3885610699653625,-0.1529812663793563,0.2357444018125534
1631106915359,0.3217665255069732,-0.4376111626625061,-0.1794784665107727,0.2394684851169586
1631106915453,0.3412269651889801,-0.4408786296844482,-0.2203766852617263,0.2434346228837967
1631106915578,0.3634912371635437,-0.4078565835952759,-0.2774237096309662,0.2408008277416229
1631106915688,0.3831290900707245,-0.355067640542984,-0.3345104455947876,0.2327523678541183
1631106915813,0.3971281945705414,-0.3046801388263702,-0.3629356622695923,0.2274299561977386
1631106915891,0.4057286977767944,-0.2595918476581573,-0.3530789613723755,0.2317772805690765
1631106915984,0.4109096229076385,-0.2232454121112823,-0.3201958239078522,0.2573287785053253
1631106916078,0.4110068082809448,-0.1959233880043029,-0.2853906154632568,0.2933878600597381
1631106916203,0.4005846679210663,-0.1857094764709472,-0.2524170577526092,0.3252991437911987
1631106916297,0.3689887821674347,-0.1950332820415496,-0.2197246849536895,0.3405537903308868
1631106916391,0.3162545561790466,-0.2162688225507736,-0.1854516267776489,0.3429344594478607
1631106916484,0.2535276710987091,-0.237230896949768,-0.1599325537681579,0.3361544907093048
1631106916594,0.2009075731039047,-0.2401106655597686,-0.1312354654073715,0.3276963829994201
1631106916672,0.1696484684944152,-0.2290131747722625,-0.0851733684539794,0.3260392546653747
1631106916812,0.1603609174489975,-0.2165395319461822,-0.0301886294037103,0.3410299718379974
1631106916906,0.174424946308136,-0.2115796059370041,0.0167345963418483,0.3797256350517273
1631106917000,0.2087212353944778,-0.2092846781015396,0.0456934459507465,0.4357374310493469
1631106917125,0.261156290769577,-0.2041099816560745,0.0589898191392421,0.4980457723140716
1631106917187,0.3137869536876678,-0.1873144656419754,0.0595439597964286,0.5466167330741882
1631106917312,0.3236362636089325,-0.1281924545764923,0.0626923441886901,0.565946638584137
1631106917453,0.3379280567169189,-0.0104718040674924,0.1005004420876503,0.5851478576660156
1631106917562,0.3520360589027405,0.2455627471208572,0.2622546255588531,0.5974704623222351
1631106917625,0.3660772442817688,0.5690145492553711,0.5224765539169312,0.6010071039199829
1631106917703,0.3847358822822571,0.8512223362922668,0.5453131794929504,0.6014202833175659
1631106917796,0.4132434725761413,0.8800718784332275,0.5696267485618591,0.6086421608924866
1631106917890,0.4486322700977325,0.911596417427063,0.5946265459060669,0.6260207295417786
1631106918046,0.4873316586017608,0.945601761341095,0.6219927668571472,0.656660795211792
1631106918140,0.5281654596328735,0.9817649126052856,0.6503204107284546,0.6986593008041382
1631106918218,0.5719701647758484,1.0210633277893066,0.677880048751831,0.7471961379051208
1631106918312,0.6211351752281189,1.022156834602356,0.7072296738624573,0.7979241013526917
1631106918406,0.6211351752281189,1.021042823791504,0.6976280808448792,0.7979241013526917
1631106918499,0.6211351752281189,1.0205482244491575,0.6860629320144653,0.7979241013526917
1631106918640,0.6211351752281189,1.0199297666549685,0.6826863884925842,0.7979241013526917
1631106918765,0.6211351752281189,1.0185508728027344,0.6904112696647644,0.7979241013526917
1631106918827,0.6211351752281189,1.0136845111846924,0.7042381167411804,0.7979241013526917
1631106918921,0.2123387455940246,1.0011720657348633,0.7116814255714417,0.4478771984577179
1631106919031,0.2444906085729599,0.9531397819519044,0.6419739723205566,0.4541177749633789
1631106919140,0.2559137940406799,0.7998691201210022,0.2639820277690887,0.428657978773117
1631106919282,0.259413480758667,0.1909758448600769,0.2825217545032501,0.3891712725162506
1631106919363,0.2699784636497497,0.2358236312866211,0.2910603284835815,0.3488436341285705
1631106919441,0.3053517341613769,0.249726340174675,0.2937559783458709,0.3167295753955841
1631106919566,0.3697635531425476,0.2439452558755874,0.2894960641860962,0.3167295753955841
1631106919629,0.4560751914978027,0.2290309071540832,0.2785343825817108,0.3167295753955841
1631106919753,0.5735943913459778,0.2117459923028946,0.2641588747501373,0.3167295753955841
1631106919878,0.6964175701141357,0.2115589380264282,0.2541665732860565,0.5041114687919617
1631106919941,0.7902917265892029,0.2238942384719848,0.2604014277458191,0.6414968371391296
1631106920035,0.8364354372024536,0.2375377118587494,0.2786788940429687,0.6414968371391296
1631106920128,0.8685515522956848,0.2521862685680389,0.2912400662899017,0.6701223850250244
1631106920238,0.8790236711502075,0.2615218460559845,0.290699154138565,0.6917785406112671
1631106920381,0.880020022392273,0.2588155567646026,0.2734951972961426,0.7067371010780334
1631106920459,0.873518168926239,0.2462436258792877,0.2382422983646392,0.7226804494857788
1631106920584,0.8667168617248535,0.2174483388662338,0.1954093873500824,0.7527698874473572
1631106920646,0.8627076148986816,0.1630644649267196,0.1615296453237533,0.7470989227294922
1631106920803,0.8610268235206604,0.0936566591262817,0.1512952595949173,0.7607752680778503
1631106920881,0.8585142493247986,0.0421216301620006,0.1757659018039703,0.7893831729888916
1631106920959,0.8516954779624939,0.0375462882220745,0.2189366072416305,0.8213868737220764
1631106921099,0.8356592655181885,0.0784173309803009,0.2639080584049225,0.7906205058097839
1631106921178,0.8060066103935242,0.1269133985042572,0.2980230450630188,0.7598528265953064
1631106921273,0.7453823089599609,0.1685240268707275,0.3187568485736847,0.7274512052536011
1631106921355,0.632840633392334,0.1979296505451202,0.3295263648033142,0.6053174734115601
1631106921433,0.4582997262477875,0.2198705077171325,0.3371460735797882,0.3729116916656494
1631106921526,0.2544443607330322,0.2293285727500915,0.3397972881793976,0.3431155979633331
1631106921683,0.0871560871601104,0.2306614071130752,0.3420042991638183,0.316214770078659
1631106921776,0.0052059479057788,0.236451044678688,0.3507294058799743,0.2973397672176361
1631106921870,-0.0252608582377433,0.2537664771080017,0.3666185438632965,0.2878608405590057
1631106921979,-0.0174963250756263,0.2743473351001739,0.3810255229473114,0.2865061163902282
1631106922073,-0.0052370098419487,0.2915457189083099,0.388698399066925,0.286246508359909
1631106922151,0.0012726471759378,0.3027217090129852,0.3847497701644897,0.2894449830055237
1631106922310,0.0064290752634406,0.304687350988388,0.3641328513622284,0.2822394669055938
1631106922372,0.0122821945697069,0.2947503924369812,0.3201815783977508,0.2662477791309356
1631106922497,0.0094574214890599,0.2763655185699463,0.2571446895599365,0.247665449976921
1631106922591,0.0008683146443217,0.2510989606380462,0.1839855760335922,0.2284251749515533
1631106922669,-0.0078737987205386,0.2271325588226318,0.1175169497728347,0.2094111293554306
1631106922763,-0.0012922448804602,0.2032553702592849,0.0730700641870498,0.1913463622331619
1631106922919,0.0334231592714786,0.1802237331867218,0.0473318397998809,0.1781630516052246
1631106923013,0.0768103003501892,0.1544533520936966,0.0301076751202344,0.1675778329372406
1631106923122,0.1104960367083549,0.1327235698699951,0.0222183391451835,0.1615375578403473
1631106923216,0.1290182024240493,0.1130480021238327,0.0137744871899485,0.1565995961427688
1631106923278,0.1325087696313858,0.0826159343123436,-0.0114511596038937,0.1490761339664459
1631106923357,0.1284652650356292,0.0457471571862697,-0.060675524175167,0.1402426213026046
1631106923528,0.1187715902924537,0.019228346645832,-0.1193422377109527,0.1287720948457718
1631106923622,0.1033083647489547,0.0129682850092649,-0.1612285375595092,0.1220451667904853
1631106923700,0.0859738960862159,0.0171180125325918,-0.1733044981956482,0.1252319067716598
1631106923810,0.0727693736553192,0.0227368175983428,-0.1616323441267013,0.1309357285499572
1631106923903,0.0773966163396835,0.0224680099636316,-0.1458695530891418,0.1254333108663559
1631106923997,0.1054761931300163,0.011428227648139,-0.1350377351045608,0.1020484417676925
1631106924138,0.145790159702301,-0.0059411386027932,-0.1332971155643463,0.0698192715644836
1631106924231,0.1800220012664795,-0.0178545136004686,-0.1345999240875244,0.0436826720833778
1631106924294,0.1945633739233017,-0.0166367031633853,-0.1350940465927124,0.0321538187563419
1631106924419,0.1843804270029068,-0.009639898315072,-0.1331812739372253,0.0259963106364011
1631106924497,0.1571447551250457,-0.0072309924289584,-0.1319583058357238,0.0255140587687492
1631106924606,0.1326517909765243,-0.0160515289753675,-0.1329848915338516,0.0353712514042854
1631106924747,0.125949889421463,-0.0341641269624233,-0.1345386356115341,0.0548928827047348
1631106924825,0.1426977962255478,-0.052625510841608,-0.1299817413091659,0.077776625752449
1631106924903,0.182733342051506,-0.0741354823112487,-0.1133311986923217,0.0959949642419815
1631106925028,0.2345336824655532,-0.1045566275715828,-0.0919611155986785,0.1133262738585472
1631106925137,0.2814724743366241,-0.1387279629707336,-0.0771646425127983,0.1281901895999908
1631106925200,0.3135677278041839,-0.1563178300857544,-0.0738062709569931,0.1417159438133239
1631106925375,0.3245516121387481,-0.1493074595928192,-0.0800353661179542,0.1476128995418548
1631106925453,0.3157789409160614,-0.1207961216568946,-0.0851702019572258,0.1507700085639953
1631106925531,0.2901099920272827,-0.0928310453891754,-0.0828943848609924,0.153506726026535
1631106925625,0.2594568431377411,-0.0845862999558448,-0.0763170272111892,0.1556510478258133
1631106925719,0.2408832609653473,-0.1013368368148803,-0.0718902722001075,0.1523545235395431
1631106925828,0.2386206686496734,-0.1371060907840728,-0.0790605172514915,0.1450286209583282
1631106925969,0.2496262937784195,-0.1678563207387924,-0.1006447523832321,0.1358847618103027
1631106926047,0.2711301147937774,-0.1624991744756698,-0.1349238902330398,0.1251114755868911
1631106926140,0.297965407371521,-0.1252122372388839,-0.1712104976177215,0.1126799806952476
1631106926234,0.3175119161605835,-0.0806735083460807,-0.1975603848695755,0.0938505381345748
1631106926331,0.3217067718505859,-0.0482013188302516,-0.2151454091072082,0.070983700454235
1631106926409,0.3042360246181488,-0.0284077413380146,-0.2416687756776809,0.0495762750506401
1631106926565,0.269212543964386,-0.0222018603235483,-0.2848101258277893,0.029284443706274
1631106926675,0.2263297140598297,-0.0186796467751264,-0.3280366361141205,0.0093962475657463
1631106926753,0.1861444115638733,-0.0147006567567586,-0.3537793159484863,-0.0184770785272121
1631106926831,0.1562718898057937,-0.0168882999569177,-0.3588787913322449,-0.0552407838404178
1631106926971,0.1366693973541259,-0.0305319037288427,-0.352988451719284,-0.1044734418392181
1631106927050,0.1251120418310165,-0.053930714726448,-0.342930257320404,-0.15670707821846
1631106927159,0.1159129366278648,-0.0787409916520118,-0.3165373206138611,-0.1919607818126678
1631106927253,0.1010920852422714,-0.0956596061587333,-0.2844095826148987,-0.1899677217006683
1631106927362,0.0845178663730621,-0.103724904358387,-0.262514054775238,-0.1569420546293258
1631106927456,0.0729130879044532,-0.1138501986861229,-0.2616041898727417,-0.1092117577791214
1631106927549,0.0701502189040184,-0.139565110206604,-0.2675578594207763,-0.063764251768589
1631106927659,0.0734669491648674,-0.1821806579828262,-0.2689367830753326,-0.0265428740531206
1631106927768,0.0846256464719772,-0.2340683937072754,-0.2688058018684387,0.0028554671443998
1631106927893,0.102255068719387,-0.2776967585086822,-0.2722300589084625,0.0225080903619527
1631106927971,0.1204784065485,-0.3139565587043762,-0.2744508683681488,0.0300625339150428
1631106928068,0.1334767788648605,-0.3379127979278564,-0.2690933346748352,0.0188030488789081
1631106928156,0.1445461213588714,-0.3677954971790313,-0.2544949650764465,-0.0065873828716576
1631106928250,0.1535834372043609,-0.4226939082145691,-0.2440670132637024,-0.0328477285802364
1631106928375,0.1607172638177871,-0.4965298771858215,-0.2297911196947097,-0.048284538090229
1631106928484,0.1662233471870422,-0.5744959712028503,-0.2007638663053512,-0.0417927466332912
1631106928593,0.1736671924591064,-0.6330920457839966,-0.1572545170783996,-0.025522906333208
1631106928687,0.1812211275100708,-0.656143069267273,-0.1161047667264938,-0.0074144396930933
1631106928796,0.1843896806240081,-0.6512834429740906,-0.0860143974423408,0.0068081044591963
1631106928859,0.1824498474597931,-0.6181557774543762,-0.0559635050594806,0.0140687869861722
1631106929031,0.1804469674825668,-0.5563806891441345,-0.0140146389603614,0.0125715397298336
1631106929093,0.1847954988479614,-0.4790492355823517,0.0427114106714725,0.00644765002653
1631106929202,0.2042195498943328,-0.3954646587371826,0.1066506505012512,-0.0034821741282939
1631106929296,0.2405184060335159,-0.344185471534729,0.1643618792295456,-0.0166122280061244
1631106929390,0.3039978742599487,-0.3056294918060303,0.2043778896331787,-0.0264224428683519
1631106929468,0.3931123912334442,-0.2558279037475586,0.2255637645721435,-0.0256783030927181
1631106929609,0.4886866807937622,-0.1849328875541687,0.2332170456647873,-0.0030229408293962
1631106929702,0.5686325430870056,-0.1208337172865867,0.2334677129983902,0.042630597949028
1631106929812,0.6293078660964966,-0.0691329091787338,0.2314098328351974,0.1074204072356224
1631106929874,0.6752012968063354,-0.0327005535364151,0.2257981151342392,0.1939193159341812
1631106930015,0.715799868106842,-0.0022707027383148,0.2152119278907776,0.292850524187088
1631106930093,0.7517931461334229,0.0316991358995437,0.2001830041408538,0.3843784034252167
1631106930218,0.7805983424186707,0.0666045919060707,0.1848444640636444,0.4527510702610016
1631106930343,0.8154810667037964,0.1007903292775154,0.173443928360939,0.471829891204834
1631106930405,0.8945032358169556,0.1296700984239578,0.1620496213436126,0.4904931783676147
1631106930499,0.9192901849746704,0.1526111662387848,0.1468484699726104,0.5111854672431946
1631106930593,0.9430870413780212,0.2010401040315628,0.126813918352127,0.53498774766922
